TP9,AF7,AF8,TP10,Right AUX
9.766,19.531,21.484,-42.969,47.852
23.926,15.137,22.949,-39.062,0
47.852,17.578,21.973,-35.645,28.809
38.574,22.461,14.648,-39.062,77.637
20.996,26.367,12.207,-39.551,62.012
-1.953,21.973,19.043,-42.48,1.953
-3.418,14.16,23.926,-48.828,10.742
31.738,16.602,29.785,-41.504,44.434
37.598,21.484,34.18,-33.203,77.148
21.973,20.996,25.879,-37.109,46.875
4.395,21.484,19.043,-45.898,44.922
5.859,19.043,18.555,-46.875,1.465
36.621,16.113,19.531,-36.621,-6.348
40.039,12.695,18.066,-30.762,51.758
23.438,11.719,15.137,-28.809,49.805
10.742,15.137,8.789,-32.227,28.32
8.789,13.184,10.742,-38.574,45.41
34.18,12.207,14.16,-38.574,19.043
40.527,16.602,10.742,-33.203,33.203
28.809,20.02,3.906,-32.227,27.344
18.066,26.367,6.348,-36.133,1.465
11.719,28.32,12.207,-35.156,-17.578
34.18,26.367,18.066,-34.18,-20.996
38.574,25.879,21.484,-33.203,62.5
23.438,27.832,18.066,-27.344,41.016
11.23,25.391,14.16,-29.297,29.297
3.418,23.438,11.23,-32.715,35.645
24.414,26.855,9.766,-28.32,-2.93
35.645,25.391,10.742,-27.832,-21.484
20.508,23.926,12.207,-33.691,2.441
5.371,24.902,12.695,-37.109,10.254
-4.883,25.391,11.23,-39.551,29.297
15.137,22.461,13.184,-40.527,28.32
33.691,22.461,21.484,-35.645,-11.23
28.809,22.949,22.461,-34.668,39.062
16.113,21.484,18.066,-40.039,15.137
-0.977,18.555,20.02,-44.434,24.414
12.695,17.578,24.414,-41.016,62.5
32.715,15.137,26.367,-33.691,46.875
25.879,12.207,27.344,-33.691,58.105
18.555,16.113,23.438,-33.691,54.199
7.324,17.09,16.113,-28.809,67.871
21.973,17.09,14.16,-24.902,55.176
49.805,22.461,15.137,-21.484,85.449
38.574,20.02,14.648,-20.508,61.523
20.508,15.137,19.043,-22.949,39.062
7.812,12.695,20.996,-22.949,7.812
17.09,17.09,21.484,-23.926,-56.152
41.016,24.414,21.973,-24.902,31.738
41.504,23.926,20.02,-21.484,44.922
30.273,23.926,20.996,-23.438,-24.414
9.277,23.438,23.438,-31.738,-44.922
12.207,22.949,26.855,-34.18,-53.223
40.527,26.367,34.668,-27.832,-72.266
41.504,26.855,34.18,-24.902,-4.883
23.438,21.973,30.273,-26.855,29.785
1.465,16.113,26.855,-31.25,-2.441
1.953,16.113,23.438,-35.156,15.625
29.297,18.555,24.902,-36.621,50.781
33.203,13.184,22.461,-34.668,2.441
20.508,14.648,16.602,-32.227,-4.883
5.371,17.09,7.812,-39.062,39.551
4.395,11.719,3.906,-41.504,20.996
26.367,12.207,8.789,-37.598,2.441
31.738,16.602,10.254,-33.203,-49.316
22.949,17.09,15.625,-32.227,-36.133
11.23,15.137,21.484,-31.738,29.785
7.812,13.672,20.508,-31.25,31.25
32.715,18.555,18.066,-32.715,45.41
44.434,21.973,14.16,-33.203,84.473
31.25,20.02,16.113,-37.109,90.332
8.789,19.531,20.996,-43.457,28.809
-1.465,20.508,18.555,-47.363,26.367
20.996,20.996,15.625,-49.805,62.012
31.25,19.043,17.09,-42.969,57.617
18.555,18.555,11.719,-41.016,4.883
7.812,20.996,6.348,-49.316,31.738
-1.465,20.02,-3.906,-48.828,78.613
18.555,19.531,-6.348,-45.898,22.461
40.527,23.438,7.324,-40.039,24.902
29.297,23.926,7.812,-35.645,46.875
18.066,22.949,3.418,-37.109,57.617
10.742,23.438,1.953,-34.668,49.805
23.438,24.902,-0.977,-34.18,83.496
41.016,21.484,-4.883,-33.691,75.684
34.668,17.09,-7.812,-32.227,29.297
20.508,18.066,-9.766,-34.668,17.578
4.883,17.09,-8.789,-35.645,49.805
19.531,22.949,-6.348,-31.25,109.863
50.293,28.32,-5.371,-24.902,52.246
41.992,27.832,-3.418,-29.297,22.461
23.438,28.809,-1.953,-35.156,13.184
5.859,25.879,-10.254,-36.621,62.012
12.207,24.414,-22.461,-39.062,42.969
40.527,28.32,-20.508,-38.086,-44.434
38.574,31.25,-14.648,-34.668,20.996
18.555,28.809,-10.742,-36.133,19.043
0.488,27.344,-7.812,-41.016,-38.574
2.93,23.926,-5.859,-42.48,4.883
27.344,24.902,-0.977,-40.039,-3.418
29.785,30.762,1.953,-34.18,32.227
18.066,29.785,-2.93,-36.133,0.488
3.418,29.297,-4.883,-44.922,-38.086
3.418,32.715,-1.953,-44.434,38.086
34.18,28.809,-0.488,-41.992,10.254
41.992,25.391,0,-38.086,-41.992
25.879,26.855,-0.488,-32.715,-12.207
15.137,27.344,5.371,-27.344,51.758
15.137,30.273,14.16,-22.461,68.848
40.039,33.203,17.09,-19.043,36.133
49.805,29.785,12.207,-14.648,64.941
36.621,25.879,10.742,-19.531,0.488
20.996,26.855,13.184,-23.926,-26.855
13.672,23.926,20.996,-20.996,6.836
37.598,21.973,34.18,-21.973,-31.25
46.387,29.785,42.48,-20.996,-31.25
29.785,30.762,42.48,-20.02,62.5
14.648,27.344,38.574,-21.973,29.297
6.836,27.832,35.645,-21.973,-38.574
20.996,25.879,38.086,-21.484,40.527
31.25,24.902,42.969,-25.391,111.816
25.391,20.02,35.645,-29.785,144.531
11.23,20.996,24.414,-30.273,93.75
-4.883,26.367,24.414,-34.18,25.391
13.184,29.297,25.391,-36.621,2.441
38.086,32.227,24.414,-27.832,-24.902
33.203,32.715,19.531,-21.484,16.113
24.414,37.109,16.113,-20.02,21.484
17.09,40.039,13.184,-19.043,-13.184
30.273,32.227,5.859,-21.484,-46.387
55.176,31.738,5.859,-18.555,-30.273
52.246,39.062,7.812,-14.16,13.184
33.691,38.574,11.23,-17.578,-24.902
15.625,34.668,10.254,-24.414,-24.414
23.926,31.25,10.742,-22.461,10.742
45.41,27.344,13.184,-22.949,28.32
44.922,28.32,13.184,-23.926,59.57
38.574,30.762,20.508,-16.113,54.688
21.484,25.391,26.367,-18.555,58.594
26.855,21.973,25.391,-26.855,63.477
53.223,24.414,20.996,-28.32,86.426
51.758,27.832,17.09,-25.391,35.156
36.621,27.832,20.508,-23.438,32.715
15.137,26.367,26.855,-28.809,50.293
14.16,22.949,30.273,-32.715,5.371
41.992,22.949,29.297,-30.762,3.418
45.898,24.414,30.273,-28.809,18.555
34.668,21.973,30.762,-25.391,54.199
19.531,18.555,25.879,-31.25,35.156
10.742,18.555,21.484,-41.016,29.785
36.133,18.066,23.926,-38.574,62.5
43.457,19.043,26.855,-33.691,48.34
27.344,21.484,25.879,-33.203,53.711
11.719,17.09,23.926,-38.086,58.594
4.883,15.137,16.602,-44.922,48.34
28.809,16.602,15.137,-42.48,-21.973
35.156,18.555,17.09,-37.109,9.766
18.066,18.066,14.648,-37.598,70.801
7.324,20.508,12.695,-38.574,1.953
-2.441,20.996,15.625,-38.574,-38.086
20.508,22.461,17.578,-37.598,22.461
37.109,25.879,9.766,-38.086,29.297
23.926,24.902,6.836,-41.016,-48.828
10.254,27.344,7.812,-42.969,-4.395
0.488,25.879,3.906,-41.016,23.926
25.879,21.484,6.348,-36.621,-14.16
50.781,23.926,4.395,-35.156,-9.766
40.039,24.902,-0.488,-34.668,7.324
22.461,24.414,1.465,-39.551,-14.16
11.719,24.414,1.465,-41.016,-8.789
25.879,21.484,0.977,-35.156,12.207
43.457,18.555,-0.488,-30.273,2.441
34.18,18.555,0,-28.809,-8.301
20.02,22.461,1.465,-35.645,17.09
3.906,22.949,-3.906,-36.621,57.617
16.113,23.926,-3.418,-30.762,41.504
41.504,26.367,4.883,-27.832,65.43
36.133,22.461,8.789,-26.855,38.086
23.438,19.531,11.23,-33.691,-18.555
9.277,21.973,11.23,-35.645,7.812
12.695,23.438,7.812,-33.691,43.945
38.086,23.926,9.277,-34.18,64.941
39.551,26.367,12.695,-36.133,61.523
21.484,25.391,11.719,-41.504,66.895
1.465,21.484,8.301,-44.922,32.715
5.859,19.531,8.789,-43.945,-26.855
32.715,22.949,15.625,-42.48,-23.926
34.668,27.832,20.508,-40.039,8.301
27.832,27.832,21.484,-37.109,61.035
14.648,24.414,14.16,-36.621,38.574
10.254,21.973,2.441,-36.133,34.668
41.016,24.414,2.93,-36.621,14.648
46.387,23.438,7.812,-36.621,14.16
31.738,23.438,8.789,-35.645,-12.207
21.973,25.391,11.23,-35.645,55.664
16.113,19.043,7.812,-37.109,122.559
38.574,15.625,6.348,-42.48,43.945
46.875,16.113,8.789,-41.992,12.207
32.227,16.602,7.324,-39.062,54.199
18.555,17.578,8.789,-41.016,69.824
9.277,18.555,2.93,-42.48,67.871
35.156,24.902,5.859,-37.109,21.484
50.293,30.273,19.531,-28.809,-30.273
41.016,29.297,19.531,-28.32,7.324
28.32,27.832,16.602,-29.297,55.176
18.066,25.879,16.113,-31.738,62.988
41.504,23.926,21.973,-32.715,18.066
58.594,21.973,24.902,-31.25,29.297
48.828,25.879,24.902,-34.18,50.781
35.156,32.715,25.391,-37.109,37.598
20.996,32.715,23.438,-39.551,43.945
36.133,30.762,23.926,-40.527,35.645
55.664,30.762,28.809,-34.18,29.785
49.805,29.297,38.574,-29.785,49.805
34.18,25.879,44.922,-35.156,-6.348
17.09,24.414,45.41,-37.598,-53.711
28.809,29.297,41.992,-32.715,-59.57
54.688,31.738,44.922,-29.297,-28.809
49.316,28.32,50.781,-29.297,22.461
35.645,25.391,46.875,-32.227,-28.809
19.043,21.484,42.969,-40.039,-43.945
21.973,24.414,46.875,-37.598,2.93
47.363,26.367,46.875,-29.297,48.34
44.434,20.02,42.969,-27.832,88.867
30.762,21.484,40.039,-28.32,35.645
16.113,23.438,37.109,-32.715,7.324
18.066,12.695,39.551,-35.156,-5.371
42.48,2.93,46.387,-33.691,7.812
40.527,-2.441,51.27,-29.785,62.012
25.879,-8.301,43.945,-29.297,42.969
14.16,-21.973,38.574,-30.762,-52.246
20.02,-42.969,41.016,-30.273,14.648
46.875,-82.031,29.785,-29.297,106.934
47.852,-156.25,23.438,-18.066,18.555
30.762,-239.258,32.715,-18.066,24.414
14.648,-291.504,30.762,-27.832,95.215
8.301,-323.73,22.949,-29.785,34.668
32.715,-329.59,29.297,-27.344,9.766
41.504,-271.484,29.297,-22.461,47.363
26.367,-182.129,13.672,-24.414,81.055
12.695,-105.957,9.766,-31.738,28.809
10.254,-51.758,22.949,-39.062,-4.883
38.086,-13.672,29.785,-35.645,58.594
51.27,8.789,33.203,-32.715,89.844
37.109,22.461,32.227,-31.738,65.918
18.555,32.715,20.508,-32.227,20.996
7.324,41.992,15.137,-36.621,29.785
28.32,52.246,20.02,-34.668,54.688
44.922,60.059,26.855,-30.273,54.688
28.32,64.941,23.926,-32.227,32.715
7.812,69.824,20.02,-35.156,29.785
-0.488,71.777,22.949,-38.086,38.086
18.066,71.289,30.762,-38.086,39.062
34.668,73.242,40.527,-29.297,33.691
29.297,75.684,41.504,-24.902,40.039
17.578,72.754,29.297,-28.809,35.156
-2.93,70.312,19.531,-30.273,49.316
5.859,70.312,19.043,-29.785,3.418
36.133,70.312,25.391,-27.344,-6.836
37.598,72.754,33.203,-23.926,-11.719
19.043,71.289,29.297,-28.809,-24.902
-1.465,70.801,19.043,-38.574,6.836
10.254,72.754,20.508,-38.574,10.254
38.086,71.289,27.832,-35.645,29.785
32.715,67.871,31.738,-39.062,54.199
16.113,66.895,32.227,-42.48,20.996
0.977,68.848,28.32,-42.48,18.066
5.859,66.895,24.414,-44.922,56.641
32.227,63.965,25.391,-43.945,-12.695
29.297,62.5,27.344,-40.039,-51.27
11.719,61.523,22.949,-46.387,16.113
-5.859,66.406,21.973,-51.27,65.43
0,68.848,27.832,-47.852,28.809
30.273,70.312,35.156,-43.457,19.531
38.574,73.73,41.504,-33.691,27.832
23.438,70.312,40.527,-28.32,-5.371
-0.488,65.918,33.691,-38.086,-3.906
-2.441,61.523,29.297,-37.598,11.23
25.879,59.57,28.32,-31.25,9.766
38.086,66.895,25.879,-29.785,-13.672
24.902,66.895,20.996,-32.227,-7.324
3.418,59.57,22.461,-39.551,-4.395
-0.977,58.105,31.25,-36.621,29.785
32.715,58.105,34.668,-23.926,42.48
45.898,61.035,30.273,-23.926,13.184
30.762,64.941,23.926,-30.762,43.457
17.578,63.477,22.461,-28.809,31.25
10.254,57.617,20.02,-33.203,17.578
30.273,55.664,20.996,-36.133,-6.836
45.898,57.129,28.809,-32.227,31.25
41.016,57.617,25.391,-33.203,95.215
25.879,55.176,12.695,-39.062,-8.789
5.371,49.316,8.301,-43.945,-7.324
21.484,48.34,9.766,-37.598,9.277
38.086,53.223,9.766,-31.25,37.109
26.855,56.641,16.602,-32.227,71.777
11.23,58.105,27.344,-36.133,61.523
-2.93,56.641,30.762,-41.992,58.594
14.648,53.223,31.738,-40.039,21.973
41.504,50.781,34.18,-27.832,-2.93
38.086,47.852,26.367,-15.625,-18.555
26.855,47.363,17.578,-15.625,-21.484
16.113,46.387,20.02,-17.09,36.133
29.297,48.34,22.949,-12.695,86.426
54.199,50.781,25.391,-8.789,9.766
51.758,49.805,29.297,-4.395,3.418
38.086,46.875,25.391,-5.859,56.641
27.832,43.945,18.066,-11.719,91.309
38.574,43.945,16.113,-6.836,72.266
59.57,41.504,20.508,-5.859,67.383
55.176,38.574,21.484,-8.301,72.266
41.504,38.086,19.531,-7.812,7.324
26.367,38.086,15.137,-8.789,-14.648
19.043,35.645,14.648,-14.16,12.207
35.156,37.109,20.996,-12.695,16.113
37.598,40.527,20.508,-7.324,14.16
27.344,42.48,14.16,-11.23,39.551
10.742,44.434,12.207,-14.648,39.551
8.301,40.039,15.137,-16.602,18.066
37.109,35.645,22.461,-13.184,55.664
41.016,34.18,27.832,-7.324,89.844
26.367,37.109,21.973,-10.254,12.695
13.184,39.062,20.02,-18.066,19.043
8.301,33.203,22.461,-22.461,20.508
28.809,32.715,21.484,-20.508,-1.953
40.039,32.227,18.555,-14.16,58.105
27.832,28.809,21.973,-13.184,75.684
14.16,35.156,30.762,-16.113,85.938
11.23,38.574,31.25,-19.043,62.5
41.016,38.086,29.785,-17.578,35.156
61.035,38.574,36.621,-15.137,91.797
41.016,36.133,42.48,-17.09,98.145
18.555,33.203,37.109,-20.996,24.414
9.766,27.832,29.297,-23.926,10.254
32.715,28.809,23.926,-22.949,-16.602
47.363,34.668,22.461,-19.531,15.137
35.156,34.18,23.926,-15.625,21.973
18.555,33.691,21.973,-21.973,-1.953
3.906,34.18,18.066,-30.273,61.523
22.461,35.156,16.602,-27.832,96.68
44.922,35.156,20.508,-23.438,16.113
36.133,30.762,25.391,-20.996,-13.672
18.066,31.25,23.438,-25.879,-7.812
0.488,34.18,21.484,-33.203,-27.832
16.602,30.273,21.484,-37.109,12.207
42.969,26.855,16.113,-34.668,26.855
33.203,27.832,14.648,-31.738,15.137
15.137,25.879,12.695,-38.086,5.859
3.906,23.926,7.812,-37.109,4.395
18.555,27.344,5.371,-30.273,-8.301
42.48,28.32,12.695,-25.391,-11.23
39.551,26.855,23.438,-20.996,6.836
22.949,23.926,21.973,-23.438,20.508
8.301,23.438,20.508,-23.438,-3.906
12.695,26.855,17.578,-24.902,33.691
33.691,25.879,15.137,-29.297,77.148
31.738,21.973,21.484,-21.484,22.949
22.949,18.555,26.367,-20.02,26.367
7.812,23.438,18.066,-31.738,62.012
-0.977,27.832,8.301,-44.434,15.137
28.32,26.367,9.277,-40.039,-23.438
36.621,25.879,6.836,-37.109,73.73
21.973,25.391,5.371,-42.969,111.328
11.23,25.879,3.906,-41.504,15.137
2.441,25.391,4.883,-41.992,-19.043
22.949,25.391,3.906,-44.922,-35.156
37.598,24.414,5.859,-41.016,29.785
24.414,23.926,8.789,-41.992,29.297
6.348,24.414,1.465,-45.41,-5.859
4.883,26.855,-2.93,-42.48,79.59
34.668,31.25,1.953,-39.551,83.984
47.363,37.598,4.883,-36.621,80.078
36.621,39.551,4.395,-35.645,60.059
20.508,34.668,4.883,-38.574,34.668
11.23,34.668,8.301,-32.715,29.785
37.598,36.133,15.625,-27.344,35.156
49.805,35.156,16.602,-28.809,45.898
29.785,32.227,17.09,-24.902,17.578
18.555,35.156,25.391,-24.414,31.738
11.719,35.645,25.391,-31.738,91.797
33.203,32.715,19.043,-31.738,27.344
51.27,34.18,17.578,-29.297,-56.641
38.086,33.203,18.555,-31.738,3.906
26.855,30.273,16.113,-30.762,6.348
15.137,29.785,12.695,-27.344,-13.672
27.344,30.762,13.672,-29.785,16.602
48.828,34.18,16.113,-36.621,51.758
42.48,32.227,15.625,-36.621,50.293
29.297,27.344,16.113,-33.203,16.602
12.695,22.949,10.254,-33.691,38.086
18.555,21.484,5.371,-33.691,60.547
42.48,24.414,8.789,-32.715,69.336
41.992,25.879,9.766,-30.762,55.176
32.227,24.902,9.277,-23.926,49.316
14.648,21.973,10.254,-21.973,52.734
16.602,17.09,14.16,-24.414,36.133
40.039,19.043,19.531,-25.879,38.086
33.203,23.438,21.484,-29.297,6.836
19.043,23.926,18.555,-31.738,-13.184
5.859,23.438,15.625,-40.527,-28.32
5.371,20.996,17.09,-47.852,-24.414
30.762,18.066,16.602,-44.434,-0.488
32.227,20.996,17.578,-41.016,-8.789
17.578,24.902,22.949,-40.527,26.367
2.441,27.344,26.367,-43.457,32.227
3.418,24.902,25.391,-47.852,-4.883
33.203,23.926,24.414,-48.34,7.324
38.574,25.391,23.926,-41.504,-1.953
20.508,23.926,24.902,-40.039,-37.598
7.324,25.879,34.668,-41.016,-26.855
7.324,30.762,41.504,-38.086,29.785
34.18,34.18,38.086,-34.668,20.02
41.992,37.109,32.715,-33.203,-4.395
31.25,38.086,28.809,-29.297,75.684
21.484,33.691,24.414,-26.855,42.48
18.555,31.738,26.367,-28.809,21.484
41.504,29.785,30.273,-27.832,29.785
49.805,23.438,30.762,-25.391,-10.742
38.574,21.973,33.203,-25.879,-13.672
23.926,25.391,41.016,-27.344,15.137
10.742,20.508,41.992,-33.203,12.207
29.297,23.926,44.922,-34.18,8.789
46.875,33.691,46.875,-28.809,12.207
36.133,32.227,40.527,-29.297,11.23
25.391,31.25,37.109,-29.297,74.707
17.09,28.809,30.273,-30.273,41.992
31.25,21.484,28.809,-31.25,-7.324
46.875,22.949,23.438,-32.715,18.555
36.621,20.996,15.137,-40.039,-17.578
16.113,12.695,18.555,-48.34,-25.391
-0.977,9.277,23.438,-51.758,-2.93
20.996,11.719,20.996,-45.41,-20.02
41.016,13.672,21.973,-39.551,1.465
28.809,15.625,24.414,-41.992,6.836
20.02,15.137,20.02,-38.574,34.18
8.789,14.648,15.137,-37.109,57.617
20.02,20.508,12.207,-40.039,38.574
42.969,22.949,16.113,-37.598,15.137
37.109,20.02,18.066,-35.645,35.645
25.391,17.578,21.484,-31.738,44.434
13.672,22.461,26.367,-25.391,31.25
19.043,21.973,24.902,-28.809,76.172
43.945,21.484,28.32,-31.25,24.414
41.504,24.414,27.344,-32.715,-39.062
24.902,26.367,25.391,-34.18,10.254
5.859,25.879,27.344,-36.621,1.465
7.324,24.414,23.438,-38.086,7.324
41.016,29.785,23.926,-37.598,16.113
43.945,26.367,26.367,-41.504,36.621
28.809,18.555,19.043,-46.387,8.301
9.766,17.09,15.625,-49.805,-16.113
1.953,13.184,16.113,-52.734,-11.23
28.809,15.137,16.602,-50.293,-31.738
36.621,19.531,22.949,-42.48,20.02
23.438,12.695,23.926,-40.527,30.273
6.836,12.695,20.508,-43.457,6.348
0.488,17.578,21.973,-41.992,63.965
29.297,19.043,23.438,-35.645,78.613
46.875,21.484,24.902,-26.855,72.754
29.785,21.484,25.879,-25.391,120.605
7.812,21.484,21.484,-28.809,78.125
1.465,24.902,21.484,-26.855,78.613
20.996,26.367,25.879,-29.297,99.121
32.227,24.902,28.32,-32.227,8.301
19.043,21.973,32.715,-31.738,-7.324
5.371,20.996,36.133,-32.715,48.828
0.488,24.902,32.227,-34.18,30.762
20.996,29.297,38.086,-33.203,19.043
37.109,32.715,44.922,-32.227,13.184
25.879,31.25,43.945,-29.785,48.828
8.789,23.926,40.527,-29.785,40.527
-3.418,20.02,36.621,-37.598,28.32
13.184,20.02,35.645,-40.527,-18.066
30.273,19.531,37.598,-37.109,-21.484
23.926,15.625,36.133,-34.18,30.762
13.672,13.672,33.691,-34.668,28.32
2.93,18.066,28.809,-35.156,50.293
16.113,17.578,27.344,-38.086,23.926
41.992,19.043,31.738,-41.016,1.953
44.434,20.508,26.855,-35.645,26.367
35.645,22.461,19.043,-31.25,86.914
18.555,20.996,16.113,-34.668,75.195
22.949,15.137,17.09,-32.715,43.457
50.293,11.719,17.09,-27.832,96.191
48.828,11.719,11.719,-20.996,81.055
30.762,12.207,11.23,-19.531,41.992
12.695,11.23,8.789,-25.879,11.719
14.648,15.137,5.859,-26.855,-29.297
41.992,18.066,7.812,-26.855,-24.414
41.992,19.531,3.906,-23.438,41.992
25.879,20.02,4.883,-27.344,38.574
12.207,20.508,14.16,-33.203,-17.578
9.766,19.043,17.09,-38.086,6.836
39.062,23.438,11.23,-41.992,6.348
46.875,28.32,9.277,-38.574,32.715
30.762,27.832,15.137,-43.457,25.879
9.277,26.855,17.09,-55.176,47.852
2.93,23.438,16.113,-54.688,63.477
28.32,20.02,18.066,-48.34,8.789
39.551,21.973,17.578,-38.574,50.293
34.668,26.855,13.184,-27.344,74.707
20.996,27.832,9.766,-26.855,14.16
7.324,27.344,2.441,-36.133,-3.418
29.785,31.25,0.977,-37.598,77.148
48.828,31.25,-0.977,-25.391,37.109
37.109,31.738,-2.93,-21.973,-10.254
23.438,34.18,-0.977,-27.832,11.719
14.648,29.297,-5.371,-31.738,31.738
31.738,24.414,-7.812,-31.738,9.277
47.363,27.832,-8.301,-29.297,-30.762
31.25,30.273,-9.277,-30.273,30.273
8.301,25.391,-8.301,-40.039,2.93
-3.418,22.461,-2.441,-45.898,0.977
11.719,24.902,1.953,-46.875,55.176
26.855,27.344,-5.859,-45.898,48.828
19.043,24.902,-9.766,-42.969,28.809
6.348,22.949,-8.301,-41.992,3.906
-11.23,22.949,-9.766,-45.898,30.273
-3.906,21.484,-1.953,-48.828,28.32
23.438,20.508,2.441,-44.434,12.207
20.02,17.578,-0.977,-43.457,86.914
5.859,19.043,4.395,-42.969,111.816
-1.953,22.461,14.16,-36.621,50.293
14.16,22.461,18.555,-30.762,20.508
43.945,27.832,19.531,-27.832,-3.418
37.109,27.832,17.09,-28.809,42.48
20.508,23.438,13.672,-26.367,82.52
4.395,20.02,15.137,-27.344,47.852
9.277,19.531,16.602,-32.227,16.602
46.387,22.949,22.949,-27.344,-9.766
46.875,22.949,28.809,-22.949,56.152
29.785,25.391,23.438,-26.367,34.18
16.113,28.809,21.484,-31.738,-30.762
17.09,31.25,22.949,-33.203,0
44.922,36.133,22.461,-36.133,35.645
45.41,33.203,23.926,-35.645,74.707
23.926,25.879,21.973,-33.203,39.551
6.348,23.926,13.184,-40.527,-3.906
0,24.902,10.254,-41.504,10.254
23.926,26.855,14.16,-37.598,45.41
33.691,28.809,9.766,-37.109,71.289
17.578,29.297,4.395,-41.504,39.551
2.441,29.785,6.348,-46.875,11.719
-0.488,31.25,12.207,-49.316,59.57
26.855,27.832,16.113,-47.852,46.875
41.504,24.414,20.996,-41.992,-7.812
33.691,28.32,27.832,-40.039,58.105
16.602,27.344,30.273,-45.898,73.73
6.348,24.414,32.715,-44.922,35.156
34.18,33.203,43.457,-33.203,21.484
51.758,36.621,53.223,-24.902,-32.715
46.875,35.156,56.641,-24.902,-37.598
38.574,36.133,58.105,-26.855,31.25
22.461,35.645,55.176,-24.414,73.73
35.156,36.133,56.152,-21.484,56.641
55.664,37.109,60.059,-19.531,3.906
47.363,41.016,60.059,-20.996,6.348
28.809,41.016,58.105,-27.832,-22.461
8.301,38.574,55.176,-32.227,-43.945
17.578,43.457,49.316,-34.18,-11.719
36.133,46.387,46.875,-39.062,30.762
27.344,52.246,51.758,-37.598,62.5
8.789,54.199,55.176,-38.574,45.898
-13.184,46.875,59.082,-47.363,29.785
-2.93,48.34,63.477,-49.805,22.949
27.344,55.176,62.5,-44.434,12.695
26.855,53.223,57.617,-41.504,21.484
12.695,52.734,53.711,-38.574,22.949
1.953,52.734,46.875,-35.645,48.34
9.766,51.27,38.574,-35.156,69.336
41.504,54.688,38.086,-28.32,50.781
43.945,57.129,39.551,-23.438,55.176
30.273,57.129,38.574,-21.973,28.809
15.625,55.664,34.18,-24.414,-16.602
13.184,52.734,27.832,-30.762,-8.301
42.969,50.293,36.133,-30.273,69.824
51.27,51.758,45.41,-25.391,5.859
40.039,52.734,47.852,-24.414,-20.508
25.879,45.898,48.34,-27.344,10.254
15.625,43.945,43.457,-32.715,37.598
37.109,41.992,43.945,-30.762,40.039
41.992,39.551,45.41,-27.832,-12.207
24.902,39.551,34.668,-35.156,18.066
10.742,40.527,28.32,-41.016,0.488
1.465,41.016,30.762,-44.922,0.977
21.484,39.551,34.668,-46.387,-3.906
32.715,36.621,40.039,-44.434,-14.16
17.578,33.203,33.691,-43.457,-5.371
-1.953,28.32,24.902,-44.434,38.086
-10.254,23.926,20.996,-46.387,16.113
12.695,25.879,15.137,-43.457,-36.621
28.32,30.273,16.602,-40.527,13.672
22.949,30.273,18.066,-41.504,30.273
12.207,32.227,18.066,-39.551,0.488
-2.93,32.227,19.531,-41.504,-12.695
17.578,32.227,17.578,-41.016,-24.902
37.598,34.668,19.531,-35.156,-16.113
24.902,34.18,18.555,-39.551,-7.324
14.648,31.25,15.625,-45.898,19.043
4.395,28.809,15.137,-48.828,30.273
17.09,28.32,15.625,-47.852,-23.926
35.156,24.414,20.508,-42.969,-2.93
26.367,19.531,26.855,-41.992,-20.996
13.672,18.555,25.391,-41.992,-54.688
3.906,19.043,20.508,-41.992,13.672
16.113,17.09,21.484,-39.062,-0.977
37.598,13.672,25.879,-36.133,-4.883
29.297,8.301,27.832,-36.133,64.941
12.207,9.277,28.809,-39.551,64.453
-7.324,13.672,26.855,-43.457,35.645
2.93,18.555,24.414,-41.992,42.48
31.25,20.996,24.902,-38.086,13.672
30.762,18.066,17.09,-35.645,-1.465
21.973,20.02,17.09,-31.25,46.387
2.93,20.02,23.926,-35.156,77.637
8.301,20.02,21.973,-41.016,41.016
43.457,16.602,21.484,-32.715,9.277
46.387,16.113,23.438,-20.508,13.184
31.738,18.066,21.973,-16.602,27.344
14.648,15.625,18.555,-22.949,-9.277
21.484,16.113,25.391,-23.926,-15.137
45.41,19.531,41.016,-24.414,52.246
36.621,20.508,43.945,-30.762,104.492
25.879,17.578,42.969,-29.297,99.121
16.113,16.113,40.527,-31.738,41.016
10.254,19.531,39.062,-36.133,69.336
32.227,25.879,46.387,-34.668,62.5
36.133,27.832,48.828,-34.668,49.316
22.949,24.902,48.34,-35.645,49.316
1.953,24.902,47.852,-40.039,-8.301
-9.766,27.832,48.828,-43.945,2.441
17.09,30.273,48.828,-42.969,-13.184
32.715,39.062,45.898,-42.48,-17.09
23.438,40.527,50.781,-41.016,41.016
12.695,38.086,54.199,-40.527,63.477
6.836,39.062,49.805,-40.527,54.688
28.32,39.062,40.039,-37.598,34.668
42.969,34.18,32.715,-35.645,24.414
29.785,26.855,32.715,-34.18,37.598
16.113,26.367,34.18,-30.273,20.02
1.465,27.344,35.645,-33.203,-40.039
13.672,27.344,33.691,-35.156,-65.918
36.621,26.855,34.18,-28.809,-29.785
31.25,24.902,44.922,-23.926,52.734
17.578,29.297,43.457,-28.32,31.738
2.93,38.086,32.715,-34.668,36.621
15.625,44.434,29.785,-31.738,-0.977
36.133,47.852,24.902,-31.738,14.16
28.32,42.969,22.461,-32.715,108.887
13.672,40.527,21.973,-34.668,47.852
-4.395,40.527,18.555,-39.551,0.977
6.836,38.574,20.508,-43.945,-21.484
36.621,43.457,25.879,-42.48,13.184
34.18,48.828,24.414,-39.062,27.832
25.391,48.34,21.973,-38.574,61.035
19.531,49.316,20.996,-32.715,78.613
24.902,47.852,20.508,-32.227,84.961
48.828,45.898,21.973,-31.25,54.199
52.734,44.922,19.043,-25.391,22.949
40.039,41.992,12.695,-25.879,33.691
18.555,39.062,13.672,-34.18,43.945
16.113,35.156,13.672,-39.551,53.711
45.41,34.668,13.184,-31.738,-4.395
53.711,38.086,14.648,-21.973,14.648
37.109,35.156,16.113,-23.926,56.641
17.578,29.297,17.578,-29.297,53.223
14.648,24.902,15.137,-33.203,52.246
40.527,22.949,14.648,-34.668,24.902
45.41,28.809,20.02,-34.668,41.992
27.832,34.18,19.043,-32.227,40.039
12.695,35.645,16.113,-31.25,17.09
5.371,36.133,15.137,-36.621,37.109
26.367,38.086,12.207,-37.598,83.008
37.109,40.039,8.301,-38.574,37.598
25.391,41.504,5.859,-42.969,-6.348
13.184,40.527,7.324,-47.852,31.25
8.301,39.062,5.859,-52.734,-36.621
27.344,40.039,5.859,-53.711,-41.992
36.621,34.18,17.578,-50.293,46.387
30.762,26.855,23.438,-41.016,75.195
18.555,19.043,25.391,-39.062,87.891
8.301,16.602,26.367,-41.992,80.078
28.32,20.02,29.297,-38.574,56.152
48.828,25.391,33.691,-30.762,19.043
42.48,24.902,33.691,-24.414,23.438
25.879,14.648,34.18,-30.762,-1.465
16.602,11.719,34.18,-34.18,-66.895
27.832,8.789,39.551,-32.227,-77.148
40.039,5.371,41.504,-33.203,-92.285
30.273,4.395,32.715,-32.715,-61.523
11.719,0.977,28.809,-37.598,70.801
-3.906,3.906,22.949,-34.668,89.355
13.184,12.695,23.926,-31.738,33.203
36.621,19.531,28.809,-38.086,30.273
27.344,22.949,27.832,-39.551,25.391
12.207,22.949,32.715,-39.062,38.574
-2.93,20.508,31.738,-42.48,14.648
2.93,23.438,24.902,-45.898,89.355
30.273,26.855,26.367,-46.875,106.445
26.367,23.926,20.996,-46.387,69.824
9.766,20.508,16.113,-46.387,35.156
-3.418,22.949,18.555,-47.363,-8.301
1.465,24.902,12.207,-45.898,-59.082
29.297,26.367,13.672,-41.504,-56.641
29.297,27.344,13.184,-42.969,16.113
20.508,30.762,10.254,-41.992,52.734
14.648,35.645,17.578,-39.062,37.109
16.113,33.203,18.555,-41.016,19.531
44.434,30.762,18.066,-36.621,38.574
49.805,32.715,23.926,-34.668,76.66
36.133,31.738,20.996,-38.086,50.293
19.043,32.715,17.578,-40.039,61.035
11.23,35.156,19.531,-42.969,45.898
31.738,32.227,24.902,-40.039,-6.348
36.621,30.762,28.809,-37.598,41.504
20.508,33.691,22.949,-41.504,75.195
4.883,34.18,24.414,-44.434,55.176
0,31.738,25.879,-47.852,17.578
20.508,28.809,20.508,-52.734,59.082
29.297,31.738,24.414,-48.34,80.566
17.09,29.297,27.344,-41.504,36.133
4.883,28.32,24.414,-40.039,76.172
-1.953,27.344,20.02,-42.969,33.203
15.625,25.879,22.461,-43.945,23.926
29.785,28.32,26.367,-42.969,58.105
22.949,23.438,25.391,-34.18,41.992
10.742,19.043,24.414,-32.227,62.988
0.488,18.555,24.902,-36.133,23.926
23.926,21.484,22.949,-33.203,3.906
49.316,20.508,16.602,-30.273,18.066
40.527,17.09,16.113,-29.785,2.93
20.996,14.648,20.02,-32.715,-42.969
3.906,12.695,20.02,-35.156,8.301
16.602,15.137,19.531,-38.086,75.195
40.527,17.578,18.066,-35.156,28.809
28.32,17.578,11.719,-34.18,40.039
10.254,15.625,7.812,-42.969,68.359
-6.348,15.625,16.602,-46.387,3.418
-2.441,15.137,21.973,-48.34,39.062
18.555,17.578,21.484,-48.828,57.129
18.555,22.949,20.508,-41.992,79.59
4.883,21.973,13.184,-44.434,129.395
-20.508,15.137,9.766,-48.828,44.434
-17.09,11.719,8.301,-42.969,-18.066
19.043,15.137,11.23,-36.133,-38.574
25.879,17.578,9.766,-30.762,35.645
19.043,20.508,4.395,-20.02,62.988
12.207,25.879,3.906,-19.043,14.16
16.602,24.902,9.766,-22.949,30.273
48.34,21.973,17.09,-22.949,10.254
52.246,25.391,19.531,-26.855,5.371
36.621,28.32,19.531,-30.273,13.184
18.555,26.855,15.625,-33.691,19.043
13.184,23.438,11.719,-36.133,21.973
38.086,27.344,8.789,-33.203,-25.391
39.551,27.344,12.207,-28.809,-1.953
23.438,22.949,17.09,-28.809,19.043
5.859,25.879,21.484,-30.762,17.09
-3.418,28.809,20.996,-32.715,20.996
18.066,31.25,12.695,-34.18,31.25
32.715,30.762,8.789,-35.156,23.926
20.02,28.809,7.324,-39.062,6.348
3.906,31.25,8.301,-39.551,-17.09
-6.348,26.855,10.742,-42.48,19.531
14.648,22.461,8.789,-44.922,58.594
32.715,23.438,7.812,-41.504,32.715
25.879,25.391,12.695,-36.133,45.898
14.648,27.832,19.043,-36.621,11.23
5.371,27.344,21.973,-31.738,8.301
30.762,25.391,22.949,-23.926,21.484
51.758,28.809,29.785,-22.461,6.348
41.992,26.367,32.227,-18.066,13.184
26.367,20.02,29.297,-20.02,20.02
9.766,14.648,30.273,-20.508,57.129
24.902,10.254,27.344,-20.508,76.66
48.34,15.625,26.367,-22.949,17.09
36.621,20.508,16.113,-29.297,18.066
22.949,20.996,5.371,-35.156,65.43
11.719,20.508,11.23,-34.668,1.465
18.555,17.578,13.672,-38.574,-28.809
43.945,18.555,13.184,-40.527,14.648
39.551,17.09,6.348,-40.039,37.109
21.484,11.23,4.395,-42.969,23.926
-0.977,9.277,8.789,-43.457,-0.977
0,13.672,12.207,-43.457,-37.598
32.227,13.672,20.508,-45.898,-37.598
34.668,11.719,33.691,-42.969,56.152
20.02,17.09,41.016,-39.062,96.191
7.324,22.461,39.062,-37.109,17.578
15.137,22.461,27.832,-34.18,-45.41
42.48,23.438,20.02,-32.227,22.461
41.504,23.438,23.438,-30.762,57.617
32.227,20.508,27.832,-23.438,13.184
20.996,21.973,23.438,-25.391,12.207
13.672,21.484,21.484,-36.133,37.109
37.598,19.531,24.902,-34.18,24.414
46.875,18.066,20.996,-26.855,-30.762
34.668,22.461,25.879,-20.02,11.719
21.973,26.367,23.926,-17.09,19.531
17.578,25.391,19.531,-20.996,-0.977
42.48,29.297,24.902,-23.438,41.016
49.805,30.762,24.902,-23.926,6.836
33.691,29.785,22.461,-24.414,-7.324
19.531,29.297,23.926,-25.391,18.555
12.695,27.832,21.973,-26.367,18.066
32.715,28.32,24.414,-27.344,14.648
47.363,24.902,31.738,-22.461,-8.789
40.039,20.02,37.109,-17.09,9.277
30.273,20.508,36.621,-14.16,65.43
17.578,15.625,32.715,-14.16,28.32
36.133,13.184,32.227,-22.949,21.484
58.105,18.555,34.668,-26.367,62.5
44.922,21.484,26.855,-23.438,75.195
28.809,23.926,23.438,-26.855,28.809
15.137,23.438,20.508,-32.715,-7.812
28.32,22.949,17.09,-37.109,37.598
52.246,27.344,25.879,-33.691,38.086
43.457,25.879,26.367,-30.762,50.293
28.32,20.508,20.02,-30.762,41.504
13.184,19.043,16.113,-31.738,24.414
17.578,17.578,15.625,-34.18,57.129
42.48,20.02,19.043,-27.832,38.086
40.527,21.973,20.508,-22.949,17.09
24.902,22.461,20.508,-27.344,14.16
11.23,24.902,20.508,-30.273,61.523
19.043,24.902,17.09,-32.227,42.48
43.945,25.391,17.09,-30.762,-29.297
37.598,24.902,23.438,-32.227,29.297
17.578,23.438,28.809,-42.969,44.434
0,20.996,35.156,-46.387,9.277
0.977,17.09,34.668,-46.875,13.184
25.879,18.555,37.109,-47.363,-10.254
29.297,20.508,44.922,-40.039,-38.086
16.113,17.578,37.109,-37.598,-5.859
1.953,17.578,34.668,-39.551,20.996
5.859,17.09,40.039,-40.039,32.227
35.156,16.113,42.48,-39.551,6.836
38.574,18.555,47.363,-30.762,47.363
25.391,18.555,44.434,-30.273,48.34
9.277,18.555,41.504,-38.574,58.594
6.348,20.996,43.945,-33.203,39.551
36.133,29.785,48.34,-25.391,8.301
43.945,31.25,43.457,-22.949,52.246
30.762,27.344,37.109,-21.484,34.18
16.602,26.367,41.016,-22.461,29.297
5.859,25.391,38.086,-28.809,41.016
29.785,31.738,28.809,-37.598,17.09
46.387,36.621,32.715,-37.598,16.602
32.715,30.762,33.203,-35.156,5.859
13.672,26.367,29.785,-41.504,-50.781
5.371,23.926,35.156,-43.945,14.16
28.809,24.902,38.574,-43.457,85.449
45.898,28.32,30.762,-43.457,87.891
38.574,29.297,20.996,-40.527,56.152
23.926,30.762,25.879,-45.898,40.039
12.207,30.762,29.297,-47.363,44.434
31.25,22.949,32.715,-41.992,38.574
50.781,21.973,41.016,-34.18,23.926
41.504,28.32,41.016,-33.203,5.371
24.414,31.25,38.574,-38.086,23.926
8.301,33.203,35.156,-41.992,36.621
21.484,31.25,28.809,-47.363,-9.277
43.945,28.32,26.855,-46.387,-10.254
31.738,27.344,24.414,-41.504,22.461
16.113,23.438,21.484,-41.016,-9.766
5.859,26.367,21.484,-44.922,53.711
15.625,30.273,19.531,-48.828,-8.301
41.504,31.25,19.043,-45.41,-73.242
40.527,32.715,24.414,-41.504,22.949
22.949,31.738,24.414,-41.016,63.965
-4.395,29.785,21.484,-48.828,76.172
-5.859,24.902,18.555,-52.734,63.965
24.902,19.531,18.066,-46.875,40.527
29.785,17.578,16.602,-45.898,24.902
14.648,16.113,7.324,-46.387,19.531
-5.859,12.207,0.488,-50.293,45.41
-6.348,11.23,0,-50.781,107.91
16.602,12.695,1.953,-46.875,72.266
19.531,16.602,-2.93,-48.828,22.461
8.301,19.043,-10.742,-48.828,23.926
-5.371,19.043,-12.695,-45.898,52.246
-6.836,18.555,-11.719,-43.457,39.062
17.578,17.578,-5.371,-44.922,-0.488
23.438,17.09,-4.395,-49.316,10.742
8.789,15.137,-8.301,-50.293,57.129
0.488,15.625,-10.254,-46.875,12.207
-7.324,12.695,-11.23,-45.898,19.043
11.23,10.254,-4.883,-47.852,87.891
23.926,9.277,-0.977,-49.805,32.227
13.184,10.742,-6.348,-48.34,2.93
2.441,9.277,-0.977,-49.316,37.109
-2.93,8.301,8.301,-52.734,35.156
18.555,13.184,6.836,-49.805,17.09
30.762,13.184,5.371,-47.363,-1.953
11.719,11.719,1.465,-51.27,7.324
-6.348,10.742,2.93,-56.152,50.293
-19.043,7.324,2.93,-56.152,21.973
0,11.23,-5.859,-54.688,-28.32
18.066,14.16,-9.766,-61.523,24.902
5.371,9.766,-7.812,-64.453,105.469
-2.441,6.348,-2.93,-56.641,82.031
-10.742,0.488,2.441,-49.316,52.246
4.883,0.488,0,-44.434,47.852
25.391,4.395,-2.441,-37.598,-14.16
16.602,2.93,-4.883,-35.645,-32.715
5.371,2.93,-9.277,-39.551,-16.113
-8.789,6.348,-3.418,-39.062,33.691
4.395,14.16,-1.465,-40.527,20.996
35.156,20.02,1.953,-38.574,19.043
30.762,19.043,11.23,-36.621,86.914
14.648,18.066,16.602,-38.574,101.562
-0.488,18.555,22.461,-41.016,81.543
9.277,17.09,24.414,-41.992,19.043
38.574,19.531,19.043,-41.016,28.32
37.109,19.531,16.113,-41.504,28.32
26.367,19.043,16.113,-42.48,-25.879
8.301,20.996,11.23,-43.945,-8.789
3.906,17.09,11.23,-44.922,5.371
28.809,11.23,11.719,-45.898,-22.949
32.227,10.742,8.789,-45.898,-7.324
19.531,13.672,3.418,-42.969,-7.324
3.418,14.16,-3.418,-41.504,-5.371
4.395,11.23,-1.465,-43.945,42.969
28.809,6.836,0.488,-44.434,64.941
30.273,7.324,-3.906,-41.504,60.547
20.508,8.789,2.93,-40.527,44.434
10.742,10.254,12.207,-40.527,36.133
6.348,7.812,4.883,-39.551,14.16
32.227,9.766,6.836,-37.598,27.832
39.062,9.766,13.672,-34.18,61.035
23.438,8.789,18.066,-30.273,46.387
7.324,6.348,21.973,-30.762,1.465
-1.465,4.883,15.137,-32.715,-6.348
24.902,10.742,12.695,-35.645,45.41
40.039,14.648,16.113,-38.574,54.688
29.297,16.113,21.484,-37.109,36.133
16.113,18.555,22.461,-41.016,24.414
4.395,17.09,21.484,-46.387,40.039
22.949,16.113,23.438,-47.852,70.312
40.527,20.508,31.25,-41.992,27.832
22.949,20.508,38.574,-43.945,-22.461
5.371,19.043,41.504,-47.852,49.805
-3.418,19.531,45.41,-46.387,52.246
11.23,18.066,52.734,-46.387,6.836
33.203,16.113,59.082,-42.969,20.996
29.297,15.137,55.664,-32.715,56.641
22.949,14.16,48.34,-26.367,51.758
11.719,11.23,49.316,-32.227,-13.184
20.508,10.742,47.852,-33.203,-5.371
45.41,14.16,46.875,-27.832,37.109
39.551,16.602,43.457,-24.414,18.555
23.926,18.066,38.086,-23.926,56.641
8.789,17.09,35.645,-24.902,36.621
19.043,17.578,33.691,-20.508,9.766
41.016,20.02,31.738,-16.113,67.383
31.738,23.438,28.809,-20.508,38.574
20.996,24.414,28.32,-22.949,-20.508
6.836,25.391,21.484,-21.484,17.09
6.348,29.297,19.531,-21.973,15.625
27.344,31.25,23.926,-25.391,-19.043
21.973,29.297,18.066,-30.762,-6.836
9.766,27.832,12.695,-31.738,16.113
2.93,31.25,16.113,-28.32,48.34
7.812,30.762,18.555,-26.855,22.949
37.109,25.879,20.02,-23.926,-29.785
46.387,28.809,20.02,-14.648,-45.898
30.273,33.203,19.043,-19.531,-0.977
12.207,31.25,20.02,-32.227,71.289
11.23,31.25,18.066,-34.18,34.18
37.598,32.715,18.555,-32.227,-1.953
43.945,30.273,24.414,-29.297,31.738
29.785,26.855,24.414,-24.414,55.176
16.113,23.438,15.137,-27.344,42.969
14.16,20.02,12.207,-28.809,0.977
39.551,20.996,21.484,-26.367,39.062
47.852,23.926,24.414,-27.832,46.875
27.344,23.438,17.578,-35.645,7.812
10.254,22.461,11.719,-41.016,-20.996
0.977,22.461,13.184,-39.062,-65.918
19.531,17.09,13.672,-37.109,27.832
39.062,15.625,16.113,-28.32,70.801
28.809,15.625,16.113,-28.809,1.465
7.324,16.113,12.207,-40.039,-2.441
-9.277,18.066,7.812,-42.48,26.367
16.602,15.625,7.324,-38.574,34.668
42.48,18.066,19.531,-35.645,31.738
30.762,18.555,22.461,-34.18,31.25
19.043,18.066,23.438,-35.645,59.57
7.812,20.996,28.809,-34.668,58.594
21.484,24.414,32.715,-29.297,-15.625
45.898,27.832,33.691,-25.391,0
40.527,25.391,33.691,-24.902,34.18
27.832,22.949,36.133,-30.273,-18.066
13.672,23.926,40.039,-35.645,-19.531
24.902,25.391,41.504,-37.598,-12.207
51.27,29.785,45.41,-33.691,51.27
49.316,36.133,45.41,-29.297,86.426
39.062,36.621,42.48,-28.32,51.758
20.508,28.809,42.969,-34.668,59.57
16.113,23.438,43.457,-41.504,39.062
39.551,21.973,41.992,-42.969,-29.297
37.109,20.508,35.645,-40.039,26.855
18.066,23.926,32.227,-35.645,26.367
-0.488,28.809,37.598,-39.062,3.418
2.441,28.32,37.109,-47.363,11.23
30.762,26.855,38.086,-43.457,-8.301
34.668,32.715,37.598,-35.645,26.367
23.438,33.203,36.621,-35.645,41.504
5.371,25.391,36.621,-40.527,23.926
2.93,19.531,40.527,-38.574,8.301
33.203,20.996,47.852,-32.715,52.246
38.574,23.926,52.246,-29.785,39.062
28.809,22.461,53.711,-23.438,-43.945
22.949,24.902,52.734,-24.414,-12.207
23.438,27.344,54.688,-23.438,39.551
52.734,30.762,56.152,-15.625,-8.789
63.477,30.762,49.316,-19.043,8.301
52.246,27.832,49.316,-21.484,43.945
38.574,23.926,53.223,-25.879,59.082
22.461,22.461,48.828,-26.367,2.93
42.969,25.391,50.781,-26.855,-19.043
54.199,23.438,58.105,-35.156,41.992
35.645,24.414,63.477,-37.598,30.273
12.695,30.762,66.406,-42.969,29.297
-7.812,29.785,56.641,-53.223,81.055
18.066,30.762,49.316,-49.805,103.027
41.992,35.156,51.27,-37.109,30.762
26.855,33.691,53.223,-34.668,58.105
11.719,33.203,50.293,-39.062,69.336
-1.465,29.297,42.48,-39.551,-21.973
14.648,24.414,36.133,-34.668,-51.758
40.039,24.902,26.855,-29.785,-14.16
33.203,24.414,23.438,-27.832,36.621
20.996,22.461,31.738,-27.832,81.055
6.348,24.902,32.715,-32.715,87.891
13.672,23.438,29.297,-35.645,94.238
38.086,26.367,32.227,-28.32,98.145
33.691,29.297,31.738,-22.949,62.012
20.02,28.32,31.25,-23.438,54.688
5.859,23.926,26.855,-24.902,37.109
17.578,21.973,16.113,-24.902,19.531
50.781,28.809,19.531,-19.043,15.625
48.828,27.832,23.926,-18.555,15.137
32.715,20.996,14.648,-27.344,-21.484
14.16,22.949,9.766,-28.32,11.23
14.16,24.414,13.672,-26.855,50.293
44.434,21.973,16.602,-25.879,26.367
50.293,22.949,14.16,-20.508,50.781
30.273,20.996,15.625,-28.809,13.672
11.23,24.902,12.207,-38.086,-23.438
7.324,30.762,8.789,-40.039,-49.316
33.203,32.715,17.09,-44.434,-52.734
33.203,31.25,23.438,-46.875,16.113
13.672,26.855,25.391,-46.875,36.133
1.465,25.391,20.508,-44.922,43.945
-1.465,24.902,8.789,-47.852,29.785
29.785,25.879,10.254,-41.992,83.008
40.527,27.832,18.066,-36.621,117.188
21.484,28.809,24.902,-42.969,71.777
3.906,25.879,27.832,-45.898,46.875
2.441,26.367,21.973,-41.504,24.414
29.785,30.273,22.461,-33.691,4.395
40.039,30.762,15.625,-30.273,-20.02
24.414,27.344,9.277,-33.691,12.207
8.789,26.367,19.043,-36.621,3.906
-0.488,26.855,20.996,-35.156,22.461
12.695,23.438,23.438,-37.109,65.43
22.949,20.02,28.32,-43.457,51.758
7.812,17.578,22.461,-44.922,-23.926
-4.395,18.555,16.113,-39.551,-9.766
-17.09,17.578,11.719,-39.062,32.227
-6.836,15.137,21.484,-44.922,-4.395
15.137,16.113,34.18,-41.504,35.645
6.348,16.113,34.18,-37.109,19.043
-3.418,19.531,34.668,-37.598,-15.137
-13.672,23.926,32.715,-38.086,44.434
-1.465,26.367,28.32,-33.691,48.828
30.273,29.785,26.855,-27.832,7.812
28.809,27.832,31.738,-25.879,-16.113
14.16,25.879,31.738,-25.879,65.918
2.93,25.391,22.461,-25.879,97.168
12.695,22.949,21.973,-25.879,47.852
41.016,28.809,20.996,-24.902,24.902
40.527,38.086,12.207,-26.367,-21.973
28.809,37.109,4.395,-28.32,-24.414
9.277,38.086,3.418,-27.832,-19.531
6.348,38.086,6.348,-30.762,41.016
30.273,35.645,11.23,-28.32,58.594
29.785,32.227,11.719,-26.855,26.855
13.184,26.367,6.348,-29.785,54.199
-1.953,25.391,2.93,-29.297,30.273
-9.277,24.414,1.465,-32.715,-37.109
8.301,25.879,3.906,-40.039,-2.441
12.695,32.227,5.371,-41.504,80.078
-5.859,32.715,10.742,-44.922,49.316
-25.879,29.785,11.23,-53.223,25.879
-29.785,32.227,5.371,-55.176,55.664
-10.742,31.25,7.812,-56.641,59.082
-6.348,25.879,8.301,-57.129,43.945
-15.625,25.879,2.441,-53.223,40.039
-25.391,28.809,3.418,-53.711,5.371
-29.785,30.762,7.324,-52.246,4.883
0,35.156,11.23,-48.828,4.395
20.02,37.598,17.578,-47.852,-9.766
16.602,32.227,18.555,-43.945,36.133
16.113,31.25,16.113,-36.621,8.301
10.254,30.762,10.254,-31.738,15.137
27.832,29.297,2.441,-29.785,54.199
50.293,34.668,-2.93,-24.414,54.199
43.457,35.645,-2.93,-19.531,17.578
25.879,32.715,4.395,-19.043,9.277
13.672,35.156,6.836,-19.043,11.719
35.156,37.598,1.465,-22.461,-12.207
56.641,38.086,4.395,-24.902,4.883
45.41,37.109,0.488,-21.973,6.348
25.879,36.133,-5.859,-28.32,-7.324
5.371,34.668,-3.418,-44.434,20.508
20.508,37.598,-2.441,-47.852,34.18
41.992,41.504,-2.93,-46.875,26.855
25.879,43.457,1.953,-49.805,7.324
3.906,39.551,0.977,-49.805,15.137
-15.137,36.133,-0.488,-52.246,58.594
-7.812,32.715,8.789,-54.199,46.875
11.23,27.344,20.996,-56.152,71.289
7.812,28.32,27.832,-55.664,41.992
-6.348,29.785,25.391,-56.641,-13.672
-21.973,31.25,20.02,-58.105,38.086
-15.137,30.273,19.043,-58.105,27.344
17.578,27.832,26.367,-52.246,32.715
25.391,25.879,25.879,-45.898,70.312
9.766,24.902,20.508,-45.41,-3.906
-3.906,21.484,17.09,-45.898,-49.316
2.441,20.02,14.16,-45.41,-10.742
33.691,25.879,16.113,-43.945,37.598
44.434,32.227,11.23,-41.504,62.012
33.203,33.691,6.836,-38.086,44.434
16.113,32.715,12.207,-38.574,22.949
14.16,28.32,10.742,-41.504,-1.953
41.992,29.297,13.672,-41.016,0
50.781,30.273,16.602,-42.48,59.57
36.133,26.367,6.348,-47.852,71.777
21.484,25.879,6.348,-52.734,16.113
10.742,26.855,9.277,-57.129,5.859
25.879,29.297,8.301,-59.57,9.766
34.668,26.855,11.23,-57.617,-0.977
23.438,22.461,10.742,-51.758,-3.906
6.348,20.996,13.184,-53.223,25.879
-5.371,22.949,19.043,-56.641,57.617
19.531,25.391,24.414,-51.758,47.852
37.598,28.809,27.832,-42.969,48.828
23.926,27.344,26.367,-41.016,42.48
7.812,29.785,24.902,-43.945,-23.438
-7.324,32.227,27.832,-43.457,35.645
8.301,30.273,33.691,-44.434,25.879
30.762,33.691,35.645,-40.527,-23.438
18.066,36.133,35.156,-40.527,32.227
0,31.738,37.598,-46.387,15.625
-10.742,30.762,37.598,-45.898,4.883
8.301,32.715,40.039,-42.969,2.93
35.156,30.762,39.551,-40.527,-2.441
27.344,30.273,32.227,-39.062,7.812
11.719,30.273,38.086,-41.016,23.926
3.418,31.25,42.48,-37.109,26.367
20.02,36.133,38.086,-33.203,-13.672
42.48,39.551,33.691,-35.156,26.855
39.551,39.062,24.902,-33.203,25.879
31.25,38.574,20.996,-31.738,0.488
16.113,39.062,25.879,-36.133,24.414
22.949,38.574,26.855,-35.645,34.668
46.875,38.086,29.785,-27.344,-15.625
38.086,38.574,35.156,-22.949,-27.344
24.902,37.598,27.832,-28.809,-13.672
9.766,35.645,24.414,-38.086,-17.578
10.742,31.25,20.996,-42.48,40.527
37.598,32.227,22.949,-41.504,88.379
40.527,33.203,25.879,-37.109,52.734
28.809,27.832,20.02,-34.18,48.34
13.672,23.438,21.973,-36.133,65.43
14.16,22.949,21.973,-39.551,32.715
44.922,30.762,26.367,-34.668,21.484
50.781,32.715,30.273,-31.738,16.602
32.715,28.32,25.391,-35.645,12.695
18.555,31.25,26.367,-34.18,33.691
15.137,37.109,20.02,-30.273,-17.09
38.574,39.062,19.043,-33.203,-29.297
52.246,44.434,19.043,-35.156,10.742
42.48,49.316,16.602,-28.32,38.574
24.902,47.852,25.391,-29.785,-8.789
15.137,46.387,25.879,-32.715,-17.578
37.109,48.34,18.555,-30.762,-22.461
46.875,45.41,17.578,-29.785,-20.996
34.18,42.48,19.043,-31.738,7.324
20.508,42.969,12.207,-34.18,42.48
9.277,41.504,10.254,-31.25,72.754
28.809,40.039,21.973,-27.832,22.949
46.387,42.48,29.785,-25.879,-37.598
35.645,39.551,26.367,-28.32,16.602
19.531,34.668,22.949,-31.25,62.5
9.766,35.156,19.531,-28.32,47.852
28.32,35.156,11.23,-28.809,51.758
48.828,36.621,16.113,-28.32,64.453
41.504,41.016,24.414,-29.785,67.871
28.32,41.992,23.438,-35.645,52.246
11.23,39.551,22.949,-34.668,61.035
22.461,39.062,21.973,-25.879,29.297
44.922,38.086,23.438,-21.973,-23.926
37.109,34.668,27.832,-28.809,-44.434
24.414,34.18,28.32,-32.715,-22.949
9.277,34.18,32.227,-33.691,43.945
18.066,32.227,33.203,-35.645,39.062
43.945,35.645,32.227,-38.086,22.949
36.133,39.062,31.738,-39.062,26.855
17.09,38.086,21.484,-37.109,13.672
1.953,32.715,19.043,-34.668,13.184
10.254,29.297,20.02,-31.738,14.648
41.504,28.32,21.973,-26.367,48.828
49.316,25.879,25.391,-21.484,47.363
36.133,25.879,23.438,-20.02,4.395
18.555,28.32,24.414,-21.484,-19.531
16.113,26.367,25.391,-23.438,-40.039
45.41,26.367,20.508,-21.973,-14.16
54.199,30.762,21.484,-20.508,72.266
41.016,34.18,21.973,-19.043,64.453
19.043,34.18,13.184,-21.484,11.719
6.348,31.25,9.277,-27.344,47.363
30.762,30.762,9.277,-27.832,28.32
36.133,28.809,10.742,-23.926,15.137
20.508,28.32,14.648,-25.391,68.359
7.324,30.762,14.16,-31.25,54.688
1.465,30.762,11.719,-34.18,66.895
26.855,32.715,16.602,-32.715,75.195
33.691,33.203,22.461,-36.133,15.137
20.02,34.18,23.926,-34.668,-1.953
7.812,37.109,26.367,-30.273,31.738
-3.418,33.691,30.762,-33.203,22.949
15.625,28.809,33.203,-32.227,37.109
30.762,29.785,33.203,-24.414,44.922
20.996,25.879,30.762,-21.973,0
7.324,21.484,31.25,-25.879,1.465
-4.883,22.461,32.227,-27.832,-6.348
17.578,23.926,28.32,-20.508,3.906
41.016,26.855,28.32,-13.184,29.785
28.809,25.391,28.809,-17.578,-3.906
12.695,23.438,27.344,-21.973,7.324
3.906,23.438,27.344,-24.414,15.137
24.902,23.438,26.855,-24.902,-31.25
47.363,25.391,29.785,-28.32,-12.695
30.273,25.879,32.227,-33.691,-4.883
6.348,22.949,34.18,-34.668,20.02
-10.254,19.531,32.227,-37.598,55.176
3.418,16.113,26.855,-36.133,51.27
33.203,20.508,33.691,-33.203,62.5
25.391,24.414,39.551,-32.715,41.992
7.324,21.484,33.691,-34.18,-27.832
-7.812,20.508,32.715,-38.086,-65.918
-2.93,19.531,37.109,-39.551,-24.414
32.715,23.926,39.062,-35.156,54.688
33.203,23.926,34.18,-34.668,60.547
16.602,21.484,23.926,-38.574,33.691
5.371,25.391,20.508,-39.551,88.867
5.371,23.926,18.555,-41.504,79.59
32.715,25.391,20.996,-39.551,-22.949
36.133,30.273,26.367,-32.715,-49.805
21.484,32.227,22.949,-33.691,-23.926
6.836,32.227,24.414,-39.551,-16.113
5.371,30.762,22.461,-41.992,33.203
30.762,32.715,23.438,-42.969,36.621
37.109,32.715,28.809,-40.039,33.203
24.902,30.273,27.344,-40.039,53.223
8.301,32.715,26.855,-41.504,56.641
-7.324,33.203,22.949,-43.945,-5.859
12.695,32.715,25.391,-48.828,-3.906
32.227,31.738,28.809,-42.48,12.695
20.02,27.832,19.531,-38.574,23.438
0,26.855,12.207,-46.875,41.504
-6.348,26.367,12.207,-45.898,73.73
24.414,26.855,18.066,-41.016,20.996
45.898,31.25,25.879,-38.574,-24.902
32.715,35.156,28.809,-43.457,39.551
14.16,35.645,26.367,-49.316,55.664
1.953,37.598,25.391,-43.945,46.387
19.043,34.18,21.973,-41.992,23.926
41.504,33.691,16.113,-42.969,-12.695
35.645,40.039,15.137,-41.504,49.805
17.09,37.109,13.672,-41.992,51.27
1.953,31.25,9.277,-45.41,10.254
17.09,27.832,8.789,-48.34,45.41
37.598,29.785,12.207,-41.992,41.504
31.738,35.156,14.648,-38.086,28.809
21.484,38.086,12.695,-38.086,6.348
6.348,38.574,7.324,-42.48,-17.09
12.695,38.086,8.301,-41.504,-1.465
34.668,39.551,14.16,-35.645,9.277
26.855,38.574,16.602,-38.574,29.297
6.348,39.062,16.602,-47.363,64.941
-9.277,37.598,10.254,-54.199,65.918
2.441,33.203,8.789,-53.223,63.477
31.738,35.645,17.578,-45.41,38.574
29.297,39.551,18.066,-41.016,-18.066
18.066,45.898,19.531,-41.016,-27.832
6.348,47.363,22.949,-43.457,-35.645
8.301,46.875,25.391,-43.945,-26.855
31.738,46.875,22.949,-44.922,-20.508
32.227,48.828,14.648,-47.363,3.906
17.578,48.34,10.742,-51.27,26.855
0.977,49.805,2.441,-50.293,-15.137
-1.953,52.246,1.953,-49.316,83.008
27.344,50.293,12.207,-48.34,109.375
34.668,50.293,20.02,-41.504,67.383
19.531,55.664,23.438,-39.062,114.258
10.254,58.105,29.297,-38.086,78.613
10.254,54.199,38.086,-36.621,40.527
35.156,45.898,33.691,-37.109,21.973
40.527,39.062,29.785,-37.109,50.293
25.391,39.062,34.18,-36.621,51.27
6.836,38.574,29.297,-38.574,-8.301
-2.93,37.598,21.484,-40.527,22.461
17.09,36.621,23.438,-43.457,86.426
28.809,31.738,31.25,-41.504,34.668
22.461,30.273,32.715,-36.133,2.441
7.812,31.25,32.227,-39.062,60.547
-5.859,28.809,37.109,-40.039,44.922
15.625,31.25,31.738,-34.18,14.16
32.227,37.109,22.949,-37.109,47.363
20.996,38.574,19.043,-44.434,43.945
8.301,37.109,17.578,-48.34,-24.414
-0.977,38.574,21.484,-50.293,-8.789
18.066,36.621,25.879,-47.363,57.129
42.48,37.109,30.273,-41.504,77.148
37.109,38.086,29.297,-37.598,64.453
22.461,34.18,25.879,-38.086,13.184
8.301,32.715,28.809,-38.574,-40.527
17.09,34.18,30.762,-35.645,-32.715
42.48,36.621,27.344,-30.273,3.418
40.039,35.156,23.926,-26.367,9.766
22.949,33.203,20.02,-29.785,44.434
-0.488,29.785,22.461,-39.062,64.453
1.465,24.902,27.344,-41.504,15.625
24.902,21.484,31.25,-39.551,30.273
20.508,20.996,34.668,-37.109,62.988
8.789,24.414,28.32,-41.016,1.465
-3.418,25.879,21.484,-46.875,41.504
-0.977,25.391,23.926,-44.434,46.387
23.926,28.809,21.973,-38.086,7.324
22.949,27.344,17.578,-36.133,24.414
2.441,27.344,17.578,-39.062,3.418
-9.277,30.273,17.578,-39.551,-15.625
2.441,31.738,19.043,-31.738,13.672
26.855,32.227,27.832,-29.297,-5.859
27.832,33.203,32.227,-31.25,7.324
26.855,31.25,26.855,-26.855,55.664
18.555,30.273,23.926,-29.785,64.453
11.719,29.785,19.531,-34.18,21.973
29.785,29.785,19.043,-32.227,20.996
37.109,33.691,20.02,-28.32,99.121
26.855,33.203,13.672,-29.297,63.965
13.184,35.156,18.555,-34.18,28.809
2.441,39.551,26.855,-38.574,97.656
20.996,38.574,30.762,-35.156,63.477
40.039,35.156,34.668,-28.32,21.484
32.227,33.691,31.25,-28.809,95.703
17.578,34.18,22.949,-26.855,47.852
11.719,33.203,20.996,-27.832,2.93
30.273,31.738,25.879,-30.273,31.738
46.387,36.621,33.203,-25.879,-9.277
40.039,41.992,32.715,-26.367,-40.527
26.855,40.039,30.273,-29.297,-36.133
11.719,35.645,26.855,-29.297,12.695
25.879,35.156,20.996,-23.926,54.688
41.504,32.227,23.926,-24.902,47.363
32.227,28.809,31.25,-24.902,45.41
25.391,26.855,30.762,-24.902,2.441
13.672,22.461,30.762,-28.32,19.531
21.973,22.949,26.367,-25.391,7.812
43.457,25.879,16.113,-26.855,39.551
34.668,29.785,8.789,-36.133,66.406
19.043,35.645,9.277,-35.645,25.879
5.859,35.645,18.066,-31.25,65.43
17.578,30.762,22.949,-32.715,95.215
42.969,27.344,23.926,-30.273,16.113
39.062,30.273,23.438,-27.344,-38.574
26.855,35.156,24.414,-27.344,-11.719
8.789,37.598,24.414,-31.25,20.996
10.254,38.086,24.414,-31.738,-15.137
37.598,37.109,32.715,-29.297,-33.691
39.551,35.645,34.18,-28.32,-4.883
26.855,34.668,22.949,-29.297,28.32
12.207,29.297,18.555,-31.738,97.168
13.184,27.832,19.043,-31.738,88.867
35.156,28.32,17.09,-32.227,21.484
38.086,28.32,20.996,-30.273,-15.625
25.879,27.344,28.809,-31.738,31.738
9.277,25.391,25.879,-37.109,42.48
8.301,24.902,25.879,-34.668,7.812
36.621,25.879,32.227,-28.809,29.785
42.969,23.926,29.785,-31.25,64.941
27.832,22.461,25.391,-34.668,69.824
14.16,24.414,19.043,-34.18,30.762
4.395,25.391,16.113,-38.086,34.668
26.855,28.32,24.902,-38.086,22.949
38.574,28.32,28.809,-36.133,16.113
25.391,26.367,23.926,-32.715,37.109
8.301,25.391,21.484,-34.18,3.418
-6.348,21.484,20.508,-36.133,-21.484
17.09,19.531,26.367,-33.691,-8.789
38.574,22.461,26.855,-28.809,-8.301
29.785,22.949,24.902,-22.949,-2.93
15.137,21.973,33.203,-24.414,24.902
6.348,19.531,35.156,-24.902,37.109
25.879,15.137,28.809,-20.508,37.109
42.48,19.531,26.855,-20.02,60.547
38.086,24.414,23.438,-22.461,80.078
28.32,20.508,21.973,-27.832,55.176
8.301,19.043,22.461,-34.668,7.812
16.602,24.414,27.832,-34.18,-5.859
36.621,27.832,29.297,-31.738,-17.09
29.785,22.949,21.973,-28.809,-17.578
19.043,19.531,19.531,-27.344,21.484
3.906,18.555,22.949,-31.738,66.895
8.789,17.09,28.32,-39.062,24.414
35.645,21.973,31.738,-34.668,7.324
34.668,25.879,25.391,-24.414,5.371
17.09,22.949,26.367,-23.438,24.902
-0.977,19.531,28.809,-28.809,76.172
11.23,16.113,20.02,-31.25,46.387
43.945,19.531,17.09,-23.926,4.883
30.762,23.438,17.09,-29.785,-3.418
8.789,22.461,18.066,-42.48,37.109
-0.488,23.926,25.879,-41.016,75.195
8.789,23.926,27.344,-33.203,55.664
37.598,21.484,24.902,-27.832,67.871
43.457,23.926,20.996,-30.273,44.922
31.738,27.832,17.578,-38.086,11.719
14.16,23.438,20.508,-40.039,28.32
16.113,19.531,21.484,-38.086,43.457
43.457,20.996,24.414,-36.133,8.301
43.945,26.855,24.414,-36.133,-29.297
29.297,26.367,14.648,-41.504,17.578
12.695,21.484,9.766,-48.34,64.453
6.348,22.949,16.602,-47.852,36.133
32.227,24.902,28.32,-43.457,39.551
42.48,24.902,24.902,-36.621,28.32
25.391,22.949,14.648,-35.156,18.066
8.301,20.996,12.695,-40.039,-15.625
5.371,23.926,12.695,-39.062,1.465
26.855,22.949,13.184,-33.691,4.395
37.109,22.949,18.555,-27.344,-26.367
29.785,24.414,17.578,-22.949,-19.531
18.066,19.531,11.23,-24.414,-31.738
5.371,19.043,9.277,-27.344,8.301
25.879,26.367,13.184,-27.344,7.812
43.457,28.809,19.043,-28.809,42.48
36.133,23.926,20.508,-24.902,40.527
23.438,21.973,17.578,-22.949,-27.344
10.254,21.484,13.672,-28.809,44.434
31.25,18.066,11.719,-26.367,57.617
54.688,18.066,13.184,-19.043,36.133
42.48,21.484,11.719,-21.973,41.504
22.461,23.926,6.836,-32.715,-19.043
5.859,23.926,8.789,-40.527,24.414
22.461,24.902,12.695,-34.668,110.84
51.27,24.902,11.23,-28.32,36.133
40.527,21.484,9.277,-30.273,-18.066
22.949,17.578,9.277,-35.156,8.301
3.906,17.578,10.742,-39.062,72.266
5.859,16.602,11.719,-35.645,80.078
32.227,19.043,18.066,-29.297,-13.184
31.738,24.414,27.344,-24.414,4.395
20.02,24.414,30.273,-21.973,32.715
5.371,25.879,33.203,-19.531,47.852
9.277,23.438,33.203,-20.996,82.031
33.203,19.043,31.738,-23.438,66.406
33.691,19.531,29.785,-21.484,20.02
22.461,18.066,25.879,-20.996,8.301
7.324,19.531,27.344,-23.438,26.367
7.324,19.043,28.809,-24.902,-27.344
35.645,19.043,25.391,-22.461,-25.879
39.551,21.973,20.02,-20.508,18.555
23.438,23.438,14.648,-25.391,46.875
15.625,22.949,2.93,-26.855,75.195
13.672,20.02,2.93,-25.879,55.664
31.738,19.043,15.625,-32.715,62.5
37.109,20.508,24.902,-27.344,41.992
21.973,22.461,23.926,-23.438,-47.852
2.93,26.367,25.879,-33.203,16.113
-3.418,28.32,25.879,-33.691,88.379
22.949,24.902,21.973,-27.344,12.207
33.203,26.367,29.297,-26.367,44.922
20.996,27.344,29.297,-29.297,46.387
7.812,24.902,26.367,-32.715,-3.418
-0.488,24.414,24.414,-32.715,-13.672
20.508,28.32,20.996,-31.738,30.273
38.574,29.297,15.137,-26.855,59.57
26.367,28.32,11.23,-21.484,34.18
11.719,31.738,11.719,-21.973,48.828
6.836,31.738,4.395,-24.414,32.227
28.809,28.809,4.883,-24.902,29.297
46.875,29.297,12.695,-20.02,21.484
38.086,31.738,19.043,-13.184,-11.719
27.344,31.25,17.578,-12.695,18.555
16.113,26.855,12.207,-18.066,35.156
25.879,25.391,9.277,-22.949,57.129
42.48,29.785,8.301,-24.414,-5.859
36.133,33.691,10.254,-22.949,-30.273
20.02,29.785,5.859,-26.855,48.828
1.953,26.367,9.277,-31.25,92.773
11.719,27.344,9.277,-34.668,93.75
31.738,27.832,5.859,-36.133,36.621
25.391,26.855,5.859,-30.273,79.59
10.254,26.855,3.418,-34.18,90.332
-11.719,23.926,6.836,-41.992,-7.324
-10.742,19.531,8.789,-43.457,-32.227
17.578,19.043,13.672,-42.48,2.441
17.578,19.531,17.578,-36.133,-2.93
5.371,19.531,11.719,-35.156,18.066
-9.277,19.531,9.277,-41.504,42.48
-9.766,20.996,9.766,-40.527,88.379
24.902,23.438,2.93,-32.715,76.172
27.832,20.02,3.418,-34.668,21.973
12.207,17.09,7.812,-41.504,21.973
1.465,14.648,7.324,-42.969,44.434
-4.883,10.742,4.395,-39.551,76.66
22.461,10.742,0.977,-33.203,-11.719
27.344,15.137,0.488,-33.203,16.602
8.301,19.043,5.859,-40.039,40.527
-8.789,24.414,6.836,-48.34,-6.348
-13.184,27.832,1.465,-48.34,37.598
15.137,28.32,2.93,-41.504,74.219
26.855,36.133,5.371,-37.598,69.824
13.672,41.016,0.488,-37.109,-5.859
-2.441,36.133,6.348,-42.48,11.719
-14.16,30.762,8.789,-44.922,60.547
6.836,27.344,5.371,-43.457,43.945
22.949,25.879,13.184,-45.898,59.57
10.254,24.414,19.043,-48.828,79.102
-4.395,25.391,12.695,-53.223,59.082
-7.812,28.32,6.348,-47.363,70.312
11.719,22.949,-0.977,-46.875,30.273
24.414,21.973,-10.742,-50.293,-10.254
14.648,23.438,-1.953,-47.852,78.125
1.953,21.973,3.906,-49.805,84.473
-8.301,23.926,0.488,-50.293,-18.555
13.184,28.809,11.719,-43.945,29.297
31.738,31.738,20.508,-42.969,23.438
15.137,28.809,20.02,-44.434,-39.551
6.348,27.832,20.508,-41.504,-19.043
-1.953,25.391,24.414,-40.527,-8.789
6.836,21.484,26.367,-41.504,31.738
24.414,24.902,25.391,-40.527,-15.625
20.02,26.855,26.367,-37.598,-21.484
11.23,24.414,17.578,-38.574,-8.301
-4.883,25.391,8.301,-40.527,-42.969
2.93,26.367,4.395,-40.039,26.367
31.25,29.297,8.301,-36.621,31.25
28.809,28.809,16.602,-33.203,7.812
17.09,25.879,20.02,-29.785,-2.441
5.859,25.879,20.996,-32.715,-12.207
7.812,24.902,18.555,-36.133,35.156
29.785,23.926,18.555,-29.785,64.941
33.203,25.391,19.531,-22.461,55.664
19.531,23.926,18.066,-20.02,58.594
2.441,24.414,14.648,-19.043,-22.461
6.836,30.273,10.742,-15.625,-47.363
36.133,35.156,16.602,-16.113,16.113
44.922,36.133,28.809,-12.695,17.09
36.133,35.645,35.156,-8.789,4.395
17.09,36.621,36.133,-19.043,47.363
4.883,34.668,39.551,-24.902,60.547
25.879,34.18,46.387,-22.949,0.977
35.645,36.133,45.41,-25.879,55.664
25.879,35.645,40.527,-24.414,51.758
9.277,34.18,38.574,-28.809,-33.203
1.953,35.156,35.645,-28.32,0
28.32,35.645,34.18,-20.02,41.504
43.457,36.621,35.156,-19.043,10.742
26.367,33.203,34.668,-19.531,6.348
13.672,30.273,29.297,-17.578,47.852
8.301,31.25,21.973,-17.09,73.242
27.832,34.18,27.832,-19.531,47.852
46.875,41.016,39.062,-17.09,14.648
36.621,41.504,32.715,-14.16,94.727
23.438,37.598,24.414,-16.113,57.129
6.836,36.133,25.391,-18.066,16.602
18.555,33.691,21.973,-19.531,50.293
42.48,36.133,21.484,-15.625,3.418
33.691,37.598,20.02,-17.09,55.176
20.02,35.645,20.508,-22.949,77.148
4.883,29.297,19.531,-26.855,66.895
15.625,26.855,18.066,-30.762,106.934
43.457,28.809,20.02,-27.832,44.434
41.504,30.273,17.09,-22.461,11.719
18.555,31.738,18.555,-21.973,39.551
-7.812,33.203,20.508,-29.785,53.711
1.953,29.785,18.066,-36.133,100.586
29.297,25.391,20.508,-32.715,31.25
25.391,26.367,23.438,-25.879,-12.695
15.625,25.391,20.02,-20.508,-11.719
5.859,20.508,13.672,-21.484,47.363
5.371,19.043,6.348,-31.25,51.758
27.344,22.461,4.395,-38.086,3.906
35.645,27.832,4.395,-30.762,25.391
22.461,27.344,4.883,-31.25,11.23
2.441,22.461,2.93,-36.621,3.906
6.836,21.484,4.395,-31.738,-5.371
34.18,20.02,7.324,-28.32,35.156
37.598,15.625,9.277,-31.738,56.152
26.855,13.184,4.395,-35.645,20.02
13.184,19.043,-2.93,-33.203,21.484
10.742,15.625,-1.953,-34.668,0.488
33.203,9.277,3.418,-35.156,-22.949
36.621,10.254,13.672,-28.809,-18.066
22.461,9.766,15.137,-28.32,27.832
8.301,10.742,12.207,-30.762,33.203
4.395,10.742,13.184,-32.715,52.246
30.273,12.207,18.555,-25.879,12.695
41.504,16.602,24.414,-17.09,-61.035
28.32,17.09,24.414,-17.578,-2.441
13.672,15.625,23.926,-18.555,-25.391
6.836,16.113,28.809,-16.113,-2.93
31.25,16.113,34.668,-17.09,56.641
47.852,15.137,32.227,-16.113,33.203
40.039,16.113,30.273,-8.301,21.973
28.809,18.066,32.227,-8.789,38.574
16.602,17.09,36.621,-13.672,52.246
35.156,14.16,34.668,-17.09,10.254
55.664,20.508,29.297,-16.602,2.93
43.457,22.949,30.762,-14.16,19.043
22.461,19.043,35.156,-21.484,0.977
3.906,20.508,41.504,-27.832,20.996
18.555,18.555,38.086,-24.902,41.992
42.48,21.973,38.086,-24.902,23.438
32.715,25.391,43.945,-27.832,0.488
17.578,22.461,36.133,-33.691,11.719
5.371,25.391,28.32,-39.062,-4.395
17.578,27.344,32.715,-38.086,-6.836
39.062,25.391,41.504,-36.621,63.965
34.668,26.367,40.039,-36.133,31.25
24.902,27.832,36.621,-31.25,21.973
8.789,32.227,38.086,-31.25,34.668
9.277,30.762,43.457,-33.203,59.57
30.273,26.855,42.969,-30.273,81.543
32.715,25.879,38.574,-27.344,90.332
21.973,21.973,36.133,-27.344,119.629
10.254,20.508,32.715,-29.785,28.32
9.766,19.531,37.598,-28.32,-40.039
31.25,16.602,42.48,-20.508,-53.711
32.227,18.066,43.457,-15.625,-16.113
17.578,19.043,45.898,-22.949,31.738
5.371,19.043,41.992,-32.715,-14.16
6.836,19.043,35.156,-36.133,-12.695
30.273,18.066,34.668,-37.598,48.34
32.715,22.461,40.527,-33.691,31.738
22.949,26.367,38.574,-29.297,-14.16
9.766,26.367,31.738,-30.762,-9.277
0.977,27.832,29.785,-36.133,66.895
26.367,26.367,32.715,-37.598,138.672
37.598,22.949,39.551,-37.598,88.379
21.484,20.996,43.457,-39.551,-1.953
6.836,18.066,49.316,-38.086,-24.902
-0.488,15.625,51.758,-40.039,33.203
20.996,16.602,43.457,-41.992,-11.719
32.227,18.555,41.016,-39.062,-68.848
18.555,19.043,42.969,-35.645,-14.648
3.418,21.484,38.574,-38.086,-12.207
-12.695,21.484,30.762,-35.645,49.316
10.254,25.391,24.414,-29.297,142.578
34.668,29.297,24.902,-22.949,87.891
24.414,23.438,24.902,-21.973,24.902
11.719,17.09,27.832,-29.785,-15.625
1.465,17.578,32.227,-30.762,-48.34
19.043,20.996,30.273,-27.344,-18.555
40.039,21.484,28.32,-29.297,27.344
31.738,22.461,23.438,-35.156,44.922
15.625,23.438,17.578,-41.504,58.105
-4.883,20.996,12.207,-45.898,62.5
7.812,22.949,10.254,-42.48,54.688
38.086,24.414,19.043,-34.18,17.578
32.715,22.949,24.414,-29.785,-2.441
20.508,20.02,23.926,-32.715,11.719
4.883,17.578,26.855,-35.156,10.742
8.301,17.578,25.391,-34.668,41.016
34.18,23.926,28.809,-37.598,20.02
32.227,26.855,27.344,-40.039,9.277
22.461,27.344,16.602,-37.109,-23.438
10.254,30.273,11.23,-33.691,-34.668
13.184,32.227,11.719,-29.785,9.277
38.086,34.18,16.113,-24.902,32.715
41.504,30.762,21.973,-17.09,66.895
30.762,27.344,23.926,-13.672,62.012
14.16,27.832,19.531,-14.648,91.797
15.625,30.762,18.555,-9.766,103.516
45.41,34.18,19.043,-7.324,29.297
43.945,36.133,19.043,-15.137,15.625
24.414,31.738,14.16,-20.996,20.02
16.602,31.738,9.277,-17.09,-0.488
16.602,37.109,11.23,-19.043,-4.883
41.992,34.668,18.555,-18.555,7.812
50.781,33.203,18.555,-10.742,26.367
33.203,35.645,15.137,-12.207,32.227
17.09,36.621,15.625,-18.066,41.016
10.254,31.738,10.254,-20.508,51.758
33.691,28.32,9.766,-18.066,58.105
50.293,31.25,14.648,-14.648,33.203
36.133,31.25,10.742,-20.508,41.016
15.137,28.809,10.254,-25.879,14.16
4.883,26.855,10.742,-29.297,-19.531
26.855,28.809,3.906,-27.832,54.688
41.504,31.25,-0.977,-26.367,101.562
29.785,28.32,-6.348,-23.926,38.086
12.695,23.926,-3.906,-21.484,-13.184
-2.441,24.414,-3.906,-25.879,11.719
15.625,26.367,-8.789,-27.344,14.648
37.598,28.809,-8.301,-25.391,41.504
31.25,29.297,-10.254,-18.066,93.262
18.066,31.738,-8.301,-17.09,60.547
1.465,35.156,-1.465,-23.438,-6.348
18.555,33.203,0.977,-19.531,-42.48
47.852,30.762,2.93,-17.578,18.066
41.016,28.32,-1.465,-21.973,66.406
30.273,30.762,-2.441,-20.996,12.695
17.578,33.691,-0.977,-22.949,-8.789
28.32,35.156,6.836,-19.531,-23.926
53.223,32.715,12.695,-17.578,41.016
45.41,32.715,12.207,-21.973,67.871
29.785,35.645,17.09,-24.902,13.672
11.719,30.273,17.09,-25.879,-16.602
12.207,24.414,18.066,-28.809,-28.32
33.203,20.508,18.555,-29.297,21.973
35.156,23.438,14.648,-26.367,34.668
22.461,31.25,17.09,-27.832,-10.742
5.371,35.156,18.066,-34.18,-24.414
3.418,34.668,17.09,-40.039,0.977
30.762,32.715,19.531,-38.574,46.387
43.945,36.621,18.555,-28.32,42.48
32.227,37.109,24.902,-25.391,32.715
10.254,33.203,31.738,-31.25,18.555
9.277,30.762,29.297,-30.762,-47.852
40.039,30.273,28.809,-26.367,-40.039
44.922,36.133,32.715,-24.902,-27.832
25.879,40.527,36.133,-29.785,16.113
7.324,33.691,38.574,-34.668,65.918
0.977,27.832,34.18,-35.156,63.965
23.926,27.344,29.297,-35.645,38.574
36.621,29.785,32.227,-30.762,32.715
30.762,37.109,31.25,-23.926,62.5
15.137,40.039,22.461,-28.32,62.988
-2.93,35.645,20.996,-34.668,8.789
17.09,36.621,27.344,-37.109,-11.23
34.18,37.598,26.855,-31.738,-26.367
24.902,33.203,20.02,-25.391,-19.531
12.695,29.297,15.625,-29.785,43.945
-1.465,27.344,18.555,-33.203,134.766
19.531,26.855,21.484,-29.297,100.098
46.875,26.855,23.438,-23.438,42.969
38.574,24.414,21.973,-21.484,5.859
21.973,21.484,19.043,-22.461,0.977
7.812,25.879,16.113,-21.484,47.363
24.902,29.297,21.484,-17.578,57.617
43.457,25.879,26.855,-14.648,68.848
36.621,29.785,25.391,-14.648,66.406
27.832,34.18,30.762,-13.184,-4.395
7.812,33.203,30.762,-16.113,-1.953
14.16,33.203,25.879,-22.461,50.781
39.062,36.621,27.344,-22.949,48.34
29.785,36.621,28.809,-22.949,57.617
12.207,33.203,25.879,-31.25,73.242
-1.465,31.738,24.414,-33.203,51.27
7.324,31.738,20.02,-28.32,4.395
36.133,34.18,19.531,-27.344,21.973
31.25,36.133,19.531,-27.344,60.059
16.602,38.574,15.625,-25.391,32.715
5.371,41.016,14.16,-28.809,8.301
7.812,37.598,16.602,-31.738,25.879
40.527,34.668,25.879,-26.367,89.355
48.828,35.645,26.855,-19.043,20.508
33.691,30.762,28.809,-17.09,-9.766
19.043,29.785,26.367,-16.602,14.648
16.113,29.297,19.531,-17.578,-19.043
40.039,29.297,31.25,-19.043,-64.453
49.316,36.621,39.551,-12.695,-6.836
36.621,39.551,35.645,-9.766,43.457
20.02,36.621,34.668,-14.648,55.664
13.184,36.621,37.109,-16.602,61.035
38.086,36.621,36.621,-17.578,24.902
45.898,34.18,34.668,-16.602,32.227
35.156,35.645,25.879,-13.672,41.992
23.438,40.039,20.02,-18.066,5.371
5.371,36.133,22.949,-24.902,12.695
21.973,32.227,28.32,-23.438,-14.648
39.551,34.668,30.273,-22.949,-47.363
29.785,35.645,24.902,-25.391,14.648
13.672,33.691,24.902,-27.832,48.828
4.395,35.645,20.508,-25.879,3.906
25.879,38.086,21.484,-20.996,-44.434
41.016,37.598,25.879,-21.484,1.465
27.344,31.25,20.996,-23.926,35.156
19.043,29.297,20.02,-23.926,46.387
9.766,33.691,19.043,-22.949,19.043
25.879,32.715,17.09,-24.414,5.371
52.246,33.691,22.461,-27.832,28.809
47.363,34.18,24.414,-25.879,35.645
29.297,28.32,20.02,-27.344,54.199
12.207,26.855,19.043,-31.738,21.484
25.391,30.762,19.531,-34.668,29.297
50.781,32.227,16.602,-38.086,93.75
46.387,31.25,8.789,-37.109,123.047
27.344,27.832,7.324,-37.109,75.684
7.812,24.902,18.066,-36.621,6.836
17.578,23.438,23.926,-35.156,-5.371
41.016,25.879,28.32,-33.203,48.828
34.18,27.344,27.344,-33.203,53.711
21.973,25.391,27.344,-35.645,27.832
13.184,27.344,27.832,-32.227,67.383
20.508,29.785,16.602,-27.344,33.691
40.039,28.32,19.043,-28.809,14.16
36.133,26.367,27.832,-31.738,26.855
23.926,26.855,25.391,-32.715,6.348
9.766,25.391,19.043,-32.715,-2.93
8.789,20.996,20.02,-28.809,36.621
36.133,20.02,22.949,-23.926,-0.977
44.434,21.973,25.391,-18.555,-14.648
36.621,27.344,26.367,-16.113,42.48
23.926,31.738,26.367,-20.508,27.832
17.578,28.809,28.32,-23.438,5.371
38.086,24.902,30.273,-24.902,18.555
46.875,25.879,27.344,-25.391,14.16
37.598,29.297,24.902,-23.438,-0.488
21.973,29.297,28.32,-24.902,33.203
8.789,24.414,22.461,-29.297,27.344
26.855,22.949,16.113,-27.832,-9.277
38.574,25.879,17.09,-23.926,9.277
26.367,27.344,20.508,-23.926,42.48
11.23,29.785,20.996,-26.367,31.25
0.488,29.297,16.602,-32.227,35.156
21.973,28.32,17.09,-32.715,78.613
37.109,29.297,19.531,-30.762,83.496
20.996,31.25,14.648,-26.855,8.789
4.395,34.18,12.207,-27.832,-21.484
-9.766,31.738,12.207,-32.715,25.879
10.742,26.855,11.23,-28.32,93.75
30.762,25.879,10.742,-21.484,75.195
19.531,29.785,10.254,-15.625,80.566
10.254,32.715,10.254,-16.113,94.238
-1.465,33.691,7.324,-14.16,0
10.254,31.738,6.348,-8.789,-67.871
33.203,32.227,11.719,-11.23,-48.828
31.25,36.133,14.16,-10.742,44.922
23.926,40.527,10.742,-9.766,73.242
12.695,38.574,14.648,-13.184,-14.16
17.09,28.32,23.926,-18.066,-15.625
39.551,26.855,30.762,-19.043,33.203
37.109,25.879,30.273,-21.484,32.227
22.949,27.344,26.367,-29.785,78.125
5.859,30.273,27.832,-37.109,89.844
11.23,28.809,23.926,-39.062,52.246
41.016,33.203,19.531,-32.715,26.855
38.086,34.668,22.461,-32.715,38.086
25.391,33.691,22.461,-34.18,2.441
10.254,34.668,18.066,-34.668,-25.391
8.301,35.645,17.578,-32.715,60.547
39.551,40.527,16.113,-26.855,18.066
45.41,39.062,11.719,-25.391,10.254
33.203,37.109,8.301,-23.926,29.785
18.066,37.109,7.324,-29.297,11.23
15.137,32.227,7.812,-30.273,34.668
44.922,32.227,8.301,-26.367,40.527
53.223,37.598,15.625,-22.461,40.039
40.527,36.621,21.484,-16.602,67.871
26.367,34.668,12.695,-14.16,43.457
18.555,38.574,13.184,-16.113,-1.465
38.574,41.016,21.484,-13.672,33.691
49.805,43.457,22.949,-7.324,56.152
38.086,39.062,18.066,-6.348,40.039
21.973,35.645,14.16,-8.301,29.297
14.16,34.668,8.789,-5.859,28.809
35.156,35.156,5.371,0.488,52.246
48.34,39.551,10.254,-0.977,91.797
35.156,37.598,11.23,-10.742,109.863
14.648,35.645,13.184,-14.648,50.293
-1.465,38.574,13.184,-15.625,9.277
20.02,35.645,12.695,-19.531,80.566
39.062,29.785,18.555,-23.926,41.016
28.32,27.832,21.484,-25.879,25.391
13.672,32.715,20.996,-23.438,26.855
-1.465,34.18,22.461,-23.926,10.742
17.578,34.18,24.902,-19.043,23.438
42.48,36.621,25.879,-13.672,16.113
33.203,36.621,26.855,-9.766,66.406
22.949,33.691,26.855,-9.277,57.129
8.789,27.832,26.367,-14.648,47.363
20.508,29.297,22.461,-12.207,53.223
47.852,33.203,20.508,-9.766,72.754
42.969,27.832,22.461,-13.184,25.391
31.738,26.367,23.438,-11.23,-14.16
19.043,26.855,18.555,-12.207,6.836
19.531,22.461,20.02,-15.625,-0.488
46.387,22.949,23.438,-14.16,22.461
47.363,23.926,20.02,-8.789,31.25
32.227,25.879,19.531,-6.836,41.016
19.043,26.367,21.484,-8.301,33.203
20.508,24.414,26.367,-8.301,44.434
44.434,26.855,32.715,-9.277,20.996
45.41,26.367,34.18,-13.672,4.883
29.785,24.902,29.297,-19.043,-32.715
16.602,23.438,21.973,-19.531,-90.332
13.672,24.414,20.02,-20.996,-22.949
36.133,27.344,19.043,-24.414,49.316
39.551,29.297,20.996,-20.996,37.598
26.367,28.32,27.832,-19.043,59.57
9.277,29.297,28.32,-27.344,82.031
6.348,34.18,26.367,-23.926,20.508
34.668,32.227,29.785,-18.555,-8.301
43.457,27.832,37.109,-17.09,-21.484
31.25,25.879,33.203,-15.137,-45.41
16.113,25.879,28.809,-16.602,-48.34
7.812,25.391,29.785,-18.066,8.789
32.715,24.902,27.832,-18.066,23.438
45.898,27.344,29.297,-15.625,34.18
32.715,25.879,24.902,-20.02,54.199
22.949,24.902,18.066,-22.949,37.109
14.16,27.832,17.09,-21.484,10.254
33.203,27.344,18.555,-23.438,-0.488
54.199,26.367,20.996,-15.625,10.254
42.969,27.832,20.996,-13.184,9.277
23.926,30.273,14.648,-20.508,-3.906
9.766,28.809,5.859,-23.926,-16.113
25.391,27.832,4.395,-25.391,20.02
42.48,24.902,7.812,-28.809,54.199
29.297,24.414,4.395,-32.715,46.387
20.508,26.855,-7.324,-33.691,45.41
3.418,27.832,-14.648,-37.109,28.32
12.207,29.297,-10.742,-39.062,5.371
39.551,29.785,-2.441,-30.762,10.742
31.738,31.25,4.395,-22.949,29.297
13.672,29.297,2.441,-24.414,48.828
-2.93,26.855,-0.977,-24.902,9.766
11.23,30.762,-2.441,-19.043,2.93
41.504,30.762,-3.418,-13.184,56.152
37.598,25.391,-0.977,-15.625,70.801
23.926,25.391,2.93,-21.484,69.824
7.812,25.879,2.93,-22.949,22.949
11.23,22.461,10.254,-21.973,-13.184
40.039,23.926,18.555,-21.973,5.859
41.016,25.391,22.949,-19.043,17.578
25.879,20.02,25.391,-17.09,-14.16
7.812,19.531,22.461,-20.02,0.977
2.93,23.926,23.926,-25.879,12.695
25.879,27.344,27.344,-25.879,0.488
29.297,27.832,23.438,-20.996,38.086
15.137,29.785,13.184,-20.02,30.273
2.441,29.297,9.277,-23.926,25.391
1.953,28.32,6.348,-24.902,42.969
27.832,28.32,-1.465,-23.438,41.504
33.203,27.832,-3.418,-20.02,49.805
23.926,27.344,-5.371,-17.09,22.949
11.23,26.367,-9.277,-20.996,44.434
2.93,26.367,-5.371,-23.926,-10.742
31.25,33.203,7.324,-17.578,-27.832
45.41,38.086,13.184,-11.719,58.594
32.715,35.156,11.719,-10.254,46.875
23.438,35.156,11.719,-10.742,45.898
15.137,34.18,15.625,-17.09,79.102
37.109,33.203,20.02,-15.137,15.137
53.223,37.109,17.09,-12.207,-31.738
38.086,36.621,7.812,-18.066,3.418
23.926,34.668,11.23,-15.625,54.688
16.602,35.156,17.09,-13.184,62.012
33.691,37.109,15.625,-16.113,42.969
51.27,40.039,19.043,-16.602,4.883
39.062,39.062,10.742,-20.996,38.574
21.484,38.086,0.977,-26.855,39.062
6.348,38.574,-0.488,-29.297,-15.625
15.625,36.621,2.93,-28.809,22.461
37.598,38.086,10.254,-20.508,36.621
32.227,42.48,16.113,-17.578,10.254
13.184,40.039,15.137,-20.996,11.719
-1.953,37.109,9.277,-21.484,5.859
9.766,36.621,9.766,-25.879,9.277
35.645,37.109,16.113,-21.484,42.969
35.645,35.645,23.926,-13.672,74.219
24.902,34.18,31.738,-15.625,91.797
8.301,32.715,29.297,-12.695,41.016
15.625,35.645,22.461,-4.883,30.273
45.41,37.109,27.344,-7.324,55.664
45.41,30.762,29.785,-11.23,-2.441
31.738,25.879,20.996,-9.277,-33.691
17.09,27.344,15.625,-10.742,-30.273
18.066,23.438,12.207,-14.16,-20.508
44.922,22.461,19.531,-9.277,-8.301
45.898,26.367,20.996,-9.277,54.199
30.273,21.973,14.648,-14.16,42.48
14.16,19.043,12.695,-18.555,11.23
8.301,17.09,12.695,-22.949,12.695
34.18,18.555,7.324,-17.09,37.109
42.969,21.484,4.395,-9.766,22.949
29.785,23.438,13.672,-5.859,23.926
12.207,27.344,20.02,-9.766,31.738
5.859,29.297,21.973,-13.184,1.465
26.855,32.715,24.902,-16.113,44.922
32.715,34.668,27.344,-18.066,65.43
21.973,35.645,27.832,-12.207,-2.441
9.277,34.668,27.344,-14.648,18.555
2.441,34.18,25.391,-20.02,13.184
29.297,35.156,26.855,-16.602,-58.594
50.293,35.645,30.273,-8.789,-58.594
41.504,35.645,32.227,-8.789,-69.336
21.973,34.18,37.598,-13.184,10.742
13.672,30.273,39.062,-10.742,107.91
36.621,28.32,39.551,-9.277,47.852
50.781,25.391,44.434,-11.719,25.879
45.41,25.391,40.527,-12.207,68.359
34.18,29.785,35.645,-16.602,14.648
13.672,28.809,34.18,-24.902,32.227
24.414,26.367,28.32,-23.926,98.633
45.898,31.25,32.227,-20.996,40.039
36.621,34.18,39.551,-20.02,-0.977
27.344,31.738,34.668,-16.113,1.953
10.742,32.227,30.273,-22.461,-12.207
14.648,33.691,27.832,-32.227,16.602
43.945,34.18,27.344,-25.391,25.391
44.434,33.691,27.832,-16.602,36.133
26.367,29.297,19.043,-21.973,104.98
12.695,26.367,18.066,-23.438,94.727
28.32,24.414,28.32,-14.16,66.895
56.152,24.902,31.25,-11.23,24.902
55.664,29.785,25.391,-11.23,13.672
41.016,30.762,22.949,-11.719,23.926
20.996,31.738,27.344,-17.09,49.316
25.391,31.738,25.879,-19.043,25.879
54.688,31.738,24.902,-18.555,-33.691
49.805,33.691,27.344,-20.508,1.953
28.809,30.762,23.926,-24.902,49.316
10.254,24.414,12.695,-33.691,24.902
7.324,22.949,10.742,-35.156,18.066
35.156,22.949,13.184,-29.785,67.871
41.992,21.973,9.277,-27.832,69.336
28.32,20.02,5.859,-31.25,71.289
12.695,20.508,4.883,-34.668,34.668
4.883,22.949,7.812,-34.18,-8.301
30.273,25.879,15.625,-31.738,17.578
44.922,25.391,15.625,-30.273,23.438
31.25,24.902,11.719,-27.832,-7.812
15.137,24.414,19.531,-26.367,21.484
4.883,22.949,24.414,-30.762,25.879
24.902,23.926,22.949,-32.715,45.41
39.551,22.949,22.461,-27.832,47.363
25.391,17.09,20.508,-26.367,-0.977
13.672,18.066,22.949,-28.32,38.574
8.789,21.973,21.973,-26.855,25.391
27.832,22.949,21.973,-27.344,-18.066
43.945,22.949,30.273,-29.785,33.691
31.738,20.508,26.855,-27.344,-5.371
17.09,22.461,23.926,-27.832,30.762
5.371,25.879,28.32,-28.809,71.289
21.973,24.902,31.25,-27.832,45.898
46.875,25.879,31.25,-20.996,21.973
39.062,26.855,29.297,-19.043,-7.324
22.949,25.879,26.855,-30.273,22.949
5.859,27.344,22.949,-37.598,16.602
20.508,28.809,24.902,-34.668,23.438
43.457,27.832,30.762,-30.762,26.855
32.715,27.832,24.414,-29.297,-12.695
17.09,27.344,18.555,-32.227,1.953
-0.488,30.273,22.949,-34.668,31.25
8.789,33.691,30.762,-32.227,34.18
39.062,33.691,30.273,-28.809,43.457
36.133,32.715,27.832,-26.367,-16.113
21.973,33.203,29.785,-27.832,-28.809
6.836,34.668,24.902,-28.809,8.789
10.742,31.738,16.602,-24.414,9.277
40.527,27.832,17.09,-22.461,22.461
38.574,27.344,19.531,-21.973,65.918
23.926,23.438,16.113,-20.996,20.02
12.695,23.926,12.695,-25.879,2.441
14.16,28.32,10.742,-30.762,26.367
42.969,27.832,8.301,-25.879,-13.672
47.852,28.32,10.742,-20.996,-20.02
29.785,32.715,15.137,-24.414,-0.977
8.301,25.391,13.672,-33.203,34.668
-0.977,18.066,10.254,-38.086,11.23
25.391,22.461,10.254,-35.156,17.09
31.25,20.996,13.672,-36.133,12.695
11.23,20.508,21.973,-38.574,-17.578
-2.441,25.391,18.066,-41.016,51.758
-6.836,21.484,12.207,-42.48,76.172
14.16,19.531,15.137,-43.945,29.297
27.344,25.391,19.531,-39.551,39.551
17.09,24.414,22.949,-31.25,11.23
2.93,23.438,22.949,-31.25,-10.742
-7.324,25.391,19.043,-35.156,30.762
15.137,23.438,17.578,-35.156,17.578
34.18,20.996,16.602,-31.25,-25.391
27.344,20.02,17.09,-25.879,49.316
19.043,21.484,18.066,-20.996,56.641
10.742,23.926,18.555,-20.02,44.434
32.227,21.484,20.508,-19.043,21.973
55.176,17.578,23.926,-18.555,-11.23
42.969,17.09,19.531,-22.461,15.137
28.32,17.578,21.973,-28.32,-1.465
18.066,19.043,22.461,-33.691,0
31.738,20.508,13.184,-37.598,32.227
52.246,23.438,19.531,-36.621,62.5
44.922,23.926,16.602,-34.18,26.855
31.25,22.949,6.836,-37.598,-26.367
9.766,20.508,5.859,-42.969,11.719
11.719,17.578,6.348,-42.969,12.207
34.668,18.066,7.812,-35.156,-47.852
30.762,20.508,12.695,-24.902,-10.742
14.16,16.602,11.23,-26.855,54.688
-8.789,14.16,4.883,-33.203,83.008
-4.395,15.625,8.789,-32.227,71.777
24.902,13.184,17.578,-30.273,30.762
24.414,15.625,27.832,-24.414,62.5
13.672,17.09,29.297,-20.508,85.449
2.93,15.625,25.879,-21.484,38.574
3.906,16.602,33.203,-19.043,67.383
32.227,20.508,37.598,-14.648,61.035
41.992,21.973,31.738,-10.254,-42.969
30.762,24.902,24.414,-11.23,-13.184
14.16,29.785,25.391,-13.184,37.109
12.207,28.809,23.438,-10.742,34.668
39.551,28.809,18.066,-8.301,47.363
41.992,30.273,24.414,-8.789,53.223
23.926,28.32,27.344,-9.766,76.172
13.672,26.855,22.461,-11.23,73.242
4.395,23.438,19.531,-13.672,26.367
16.602,17.578,18.555,-20.508,37.109
27.832,20.02,15.625,-21.973,48.828
20.508,23.438,11.719,-22.949,31.738
5.371,20.02,8.301,-23.926,41.504
-7.812,22.461,11.23,-25.391,25.879
5.859,27.832,16.113,-29.297,-20.508
14.16,23.926,17.09,-30.762,-9.766
6.348,22.949,21.484,-27.832,27.344
-5.371,20.508,24.902,-32.715,63.477
-12.695,13.184,18.066,-35.645,62.988
12.695,16.113,16.602,-29.785,44.434
34.18,19.043,18.555,-22.949,-14.648
23.438,16.602,22.461,-16.602,20.508
12.207,16.113,24.414,-12.695,8.301
5.371,17.09,25.391,-14.16,-57.617
24.414,19.043,27.344,-13.672,-46.875
40.527,20.02,20.996,-13.184,7.812
29.785,20.02,17.578,-17.09,24.414
17.578,22.461,21.973,-19.043,19.531
0,25.391,27.344,-21.973,65.43
12.207,25.391,26.855,-22.461,65.918
38.574,22.949,26.367,-17.578,33.691
35.645,26.367,26.855,-13.672,60.059
23.438,28.809,24.414,-15.625,77.637
6.348,28.809,27.344,-20.996,74.707
11.23,29.785,33.203,-21.973,62.5
39.551,32.227,34.18,-22.949,33.203
43.945,33.691,31.738,-20.02,74.219
30.762,30.273,33.203,-16.113,50.293
15.137,25.879,33.203,-17.578,-20.996
19.531,27.832,22.949,-17.578,-17.578
48.34,30.273,13.672,-21.973,35.645
51.758,29.785,13.184,-22.461,-27.344
49.316,34.668,16.602,-19.531,-60.547
40.527,35.156,18.066,-21.973,15.137
19.043,26.855,14.16,-22.949,-17.09
46.875,27.832,8.789,-19.531,39.551
55.176,36.621,5.859,-16.113,67.383
37.109,37.109,5.371,-15.137,59.082
20.996,35.645,9.766,-13.672,72.266
19.043,31.25,7.812,-14.648,50.781
46.387,30.762,12.695,-14.16,14.16
54.199,32.227,20.996,-12.207,-13.184
34.18,24.414,18.066,-13.672,25.391
14.16,18.555,12.695,-22.949,-3.906
2.93,20.02,7.324,-30.762,-26.855
22.461,27.344,6.348,-25.879,27.344
35.645,29.785,5.859,-22.949,20.996
24.902,24.902,2.441,-24.902,34.18
8.789,21.484,5.371,-24.902,83.008
-1.465,20.508,11.719,-26.855,94.727
21.484,21.484,12.207,-24.902,72.754
39.062,23.438,17.09,-20.02,35.156
31.25,22.949,16.602,-21.484,43.945
22.949,24.902,17.578,-21.973,22.461
12.207,23.926,18.066,-23.438,-1.953
25.879,22.461,14.648,-23.926,44.922
45.41,25.391,14.16,-19.531,51.27
37.598,24.902,11.23,-16.113,39.062
23.926,23.926,8.301,-13.184,50.781
9.766,26.855,2.93,-12.695,22.949
18.066,26.855,1.465,-18.066,32.715
42.969,26.855,2.441,-14.648,46.875
39.551,27.344,-0.977,-9.766,68.848
39.062,25.879,-1.465,-12.207,69.336
11.719,24.414,5.371,-20.996,-2.441
-1.953,27.832,5.859,-25.879,8.789
30.273,37.598,11.23,-22.949,-4.395
22.461,40.527,23.438,-27.832,-51.27
8.301,34.18,20.996,-33.203,4.395
-3.418,33.203,11.719,-38.574,-6.348
0,40.039,11.719,-37.598,-24.414
25.879,41.992,13.184,-32.715,5.859
24.902,39.551,12.695,-30.273,16.113
11.23,37.598,17.578,-27.832,20.02
-4.883,33.691,19.043,-29.785,23.438
-5.371,27.344,15.137,-31.738,62.012
23.926,25.391,16.602,-29.297,31.738
32.227,29.785,15.137,-25.391,18.555
23.438,32.715,7.324,-21.484,48.34
11.23,35.156,5.371,-22.949,57.617
9.277,36.621,2.441,-20.02,68.359
39.551,33.691,1.953,-16.602,15.625
47.852,36.133,3.906,-17.578,12.695
24.902,37.109,9.277,-19.531,35.645
20.02,36.133,21.484,-20.02,2.93
21.484,37.598,26.855,-21.484,30.762
24.414,36.133,26.367,-20.508,-3.906
39.062,35.156,28.32,-20.508,14.16
33.203,32.715,27.344,-18.066,10.254
21.484,35.645,25.391,-20.996,-22.949
11.23,39.062,32.227,-25.391,16.113
23.926,34.18,41.992,-24.902,51.27
41.504,30.762,50.781,-21.484,8.789
29.785,31.738,54.199,-19.043,36.621
11.719,35.156,51.758,-23.438,44.434
2.441,36.133,50.781,-25.391,-6.836
19.531,32.227,50.293,-23.438,51.27
37.598,33.203,49.805,-18.066,63.477
36.133,34.668,40.527,-12.695,13.184
30.762,35.156,28.32,-18.555,-9.766
3.418,32.227,24.414,-20.996,6.836
15.137,30.762,29.297,-17.578,8.301
46.387,29.785,35.645,-11.23,6.348
41.992,27.344,31.25,-10.254,-15.625
28.809,24.902,28.32,-22.461,-0.977
18.066,26.367,29.297,-23.438,43.945
32.715,29.297,28.809,-19.043,27.832
58.594,32.227,32.227,-23.926,25.391
55.664,35.156,35.156,-23.926,-3.906
31.738,32.715,38.574,-19.531,-2.93
16.602,30.762,33.691,-19.531,67.383
25.391,31.738,28.809,-22.461,5.859
42.48,34.18,37.109,-21.484,-46.387
49.805,33.203,36.621,-18.555,28.32
34.18,29.785,34.18,-16.113,50.781
-3.418,26.855,34.668,-15.625,72.266
2.441,28.809,36.133,-16.602,75.684
30.273,29.297,40.527,-11.719,-4.883
28.32,29.297,45.41,-13.184,-30.762
33.203,33.203,46.875,-20.508,39.551
12.207,32.715,54.199,-23.926,47.363
-11.719,27.832,63.965,-27.344,46.875
22.949,26.855,60.059,-22.949,-0.488
28.32,28.809,58.594,-19.531,2.93
13.672,26.855,59.082,-21.484,92.773
7.324,27.344,56.152,-25.879,101.562
4.883,29.297,56.152,-27.344,31.25
19.531,36.133,62.012,-19.043,-8.789
38.086,47.363,59.57,-14.648,-7.812
27.832,46.875,47.852,-15.137,11.23
13.672,43.945,43.457,-16.113,22.461
12.207,45.898,47.363,-13.672,6.836
32.227,45.898,48.34,-11.719,19.531
42.48,44.922,45.898,-15.137,10.742
34.668,43.945,41.504,-11.719,5.859
20.508,42.48,35.156,-13.672,53.223
7.324,38.574,33.203,-21.973,40.527
27.832,36.621,35.156,-22.949,-2.441
46.387,38.574,39.062,-21.484,9.277
32.715,37.598,39.551,-20.02,59.57
14.648,35.156,37.598,-24.414,125.488
12.695,33.691,35.156,-28.809,74.707
28.809,32.227,36.621,-27.832,-10.254
29.297,31.25,37.598,-27.832,-26.855
27.832,28.809,32.227,-26.367,11.719
21.973,30.273,28.809,-23.926,24.902
4.883,29.785,28.809,-27.832,-24.414
14.16,26.855,32.715,-30.273,-29.785
39.551,28.809,37.109,-27.344,2.93
32.715,31.25,31.738,-27.344,22.949
20.996,29.297,31.25,-24.902,25.391
8.301,28.809,32.715,-23.438,23.438
14.648,32.715,28.32,-25.879,37.109
41.504,35.156,26.855,-19.531,26.855
40.039,36.133,26.855,-14.648,-31.25
21.484,36.621,23.926,-17.09,6.348
8.301,42.48,14.648,-14.16,50.293
16.113,46.387,11.23,-9.766,-15.137
43.945,42.48,15.625,-9.277,-6.348
39.551,35.645,15.137,-8.789,41.504
21.973,36.133,10.254,-13.672,48.34
11.23,38.086,7.324,-16.602,50.293
10.254,39.062,6.348,-13.672,3.906
32.715,39.062,10.254,-16.602,0
31.738,39.062,16.113,-21.484,70.312
15.625,38.574,15.137,-22.461,78.125
-0.488,37.598,13.184,-27.832,39.551
-3.418,36.133,19.043,-32.227,5.371
23.926,36.133,25.391,-25.879,41.992
36.621,40.039,20.02,-24.902,44.434
25.879,41.016,14.16,-27.344,11.719
13.184,44.434,12.207,-29.297,56.641
5.371,45.41,12.207,-33.203,83.008
29.785,42.969,13.184,-29.785,102.539
49.316,50.293,11.719,-23.438,94.727
33.691,53.711,5.371,-23.926,59.082
15.625,49.316,-2.441,-23.926,63.965
7.812,45.41,-6.348,-17.578,56.152
24.902,42.48,-1.465,-12.207,41.504
45.41,45.41,3.906,-12.207,3.906
40.039,49.805,6.348,-12.207,21.973
26.367,51.758,10.742,-13.672,2.441
13.184,51.758,11.719,-19.531,-2.441
25.879,50.293,11.719,-21.973,35.156
50.781,49.805,11.23,-20.02,7.812
44.434,48.828,13.184,-16.602,-31.738
26.855,47.363,12.207,-20.508,-7.324
16.602,46.387,8.789,-22.949,23.438
33.691,47.852,8.301,-22.461,-2.93
58.105,46.387,13.184,-23.926,-6.836
51.758,44.434,16.113,-21.973,-26.855
36.621,44.922,17.09,-22.461,-9.277
21.484,42.969,16.602,-26.367,-24.902
29.785,40.039,12.695,-26.855,-31.738
52.246,39.551,19.043,-27.832,0
49.805,39.062,24.414,-25.391,-20.02
39.062,37.109,20.508,-20.508,60.547
19.531,33.203,12.207,-26.367,41.992
19.043,28.809,5.859,-32.227,-19.531
42.48,27.344,7.812,-33.203,5.859
40.527,23.926,7.812,-32.227,18.555
25.879,25.391,6.348,-35.156,45.41
9.277,26.367,11.23,-42.48,40.527
9.277,22.461,17.09,-35.645,42.48
32.715,23.926,22.949,-25.391,30.273
36.133,26.855,23.926,-24.902,19.531
28.32,26.367,21.973,-25.391,30.273
11.719,23.438,23.438,-26.855,53.223
2.93,22.461,22.461,-28.809,50.293
30.762,22.949,19.531,-25.879,4.395
38.574,22.949,19.531,-28.32,28.32
22.949,21.484,17.578,-32.715,38.086
5.371,20.02,17.09,-32.227,22.461
-1.953,20.996,21.484,-27.832,41.504
28.32,22.949,26.367,-19.043,112.305
43.457,23.926,28.809,-18.066,85.938
32.227,26.367,32.227,-17.578,21.973
24.902,27.832,37.109,-13.672,40.527
13.672,26.855,33.691,-13.184,63.477
29.297,25.879,29.297,-16.113,71.777
46.387,26.367,33.203,-18.555,71.289
35.645,28.809,37.598,-17.09,29.785
20.508,26.855,35.645,-18.066,-15.137
2.441,21.484,32.715,-20.02,6.836
15.625,21.484,34.18,-15.137,41.504
31.25,21.973,39.062,-11.719,23.438
17.578,20.02,34.668,-14.16,59.57
7.812,20.996,28.809,-16.113,71.777
-2.93,18.555,27.344,-19.043,-7.324
13.184,15.137,29.297,-17.09,14.16
39.062,13.184,31.25,-12.207,16.602
30.762,12.695,27.344,-15.625,19.531
13.672,16.113,23.926,-23.438,85.449
-2.441,18.066,29.785,-27.344,14.16
6.348,18.066,35.645,-29.785,-9.277
31.25,21.484,30.273,-28.809,-1.953
27.832,20.996,28.32,-25.391,-27.832
16.602,16.113,27.344,-25.879,-17.578
0,15.625,25.879,-26.855,22.461
4.395,13.672,21.973,-25.879,46.387
34.18,13.672,22.949,-20.02,58.594
33.691,12.695,24.414,-13.672,71.777
23.926,12.695,23.438,-8.789,15.137
8.301,15.137,23.926,-13.672,-4.883
12.207,18.066,16.113,-19.043,53.223
40.527,18.555,11.23,-15.625,28.809
36.133,19.043,12.207,-16.602,45.41
23.438,20.996,9.766,-11.719,69.336
9.766,18.555,10.742,-13.672,36.621
9.277,15.625,13.672,-15.137,29.297
41.504,20.996,16.602,-7.812,22.461
46.875,24.902,13.672,-8.301,15.137
25.879,21.973,7.812,-13.672,8.301
10.742,20.508,6.836,-20.508,-8.301
8.301,17.09,7.324,-25.391,45.898
34.18,17.578,13.672,-24.414,58.594
41.504,24.414,16.602,-23.438,25.879
28.809,27.832,11.23,-27.832,73.73
13.184,26.367,5.371,-35.645,56.152
-1.953,24.902,0,-42.48,4.395
20.996,27.344,2.93,-41.016,-1.953
43.457,31.738,9.766,-35.645,4.395
30.762,33.203,13.184,-29.785,-31.25
11.719,36.133,20.02,-24.902,-29.297
0.977,33.203,26.855,-22.949,-8.301
17.578,31.25,26.855,-19.531,30.762
37.598,33.203,22.949,-15.625,22.461
32.715,31.738,19.043,-10.742,12.695
22.461,33.691,9.277,-7.812,11.719
11.23,32.227,4.395,-8.789,-2.441
24.414,27.344,8.301,-8.301,46.875
43.945,25.391,5.859,-6.836,40.039
33.691,24.902,9.277,-13.672,38.574
19.043,26.367,17.09,-18.066,74.707
4.883,28.32,16.113,-19.531,72.754
18.555,26.855,11.23,-16.602,48.34
43.945,25.879,10.254,-10.742,30.273
37.598,26.855,16.113,-11.719,32.227
29.785,26.855,10.254,-16.113,69.824
9.766,28.32,6.348,-23.926,54.688
11.23,25.879,9.766,-26.367,8.301
41.504,25.879,9.277,-24.902,24.414
38.086,27.832,10.254,-24.902,-6.348
21.484,25.879,14.648,-27.832,-31.738
6.348,25.391,15.625,-33.691,14.648
7.324,27.832,16.113,-33.203,26.367
28.32,30.273,23.438,-28.32,71.289
29.785,25.879,34.668,-21.484,-10.742
17.578,22.949,37.109,-15.137,-63.965
0.977,24.902,28.809,-18.555,-9.277
-2.441,22.949,24.414,-29.297,-57.129
22.461,19.531,28.32,-26.855,-51.758
28.32,21.973,25.879,-20.02,42.48
13.184,23.926,19.531,-20.996,53.223
-0.977,23.926,17.578,-27.832,33.691
0.977,29.785,18.066,-29.297,57.129
27.344,34.18,21.973,-26.855,1.465
31.738,31.25,19.043,-24.414,16.602
18.066,27.832,14.648,-21.973,19.531
7.324,29.785,17.578,-23.926,-1.465
1.953,34.18,21.973,-23.438,-17.09
29.785,35.645,24.902,-15.137,-40.039
44.434,34.668,28.809,-12.695,-25.879
27.832,34.18,32.227,-15.625,21.484
14.648,35.156,31.738,-15.137,61.523
4.883,34.18,34.18,-17.09,25.879
25.879,32.227,39.062,-19.531,-17.09
41.992,28.32,41.504,-20.996,5.859
25.879,27.832,43.457,-21.484,36.133
11.719,29.297,46.387,-21.484,74.219
2.93,29.785,48.828,-19.043,47.363
21.484,29.785,51.27,-16.602,45.898
40.527,27.832,52.734,-9.766,89.844
33.691,25.879,45.898,-9.277,91.309
24.902,23.438,41.504,-7.812,61.523
7.324,24.414,45.41,-7.324,14.16
15.137,22.949,48.828,-16.602,32.715
40.527,22.461,46.875,-15.137,77.148
39.062,31.25,43.457,-7.812,84.961
25.391,32.715,39.551,-11.23,56.152
6.348,30.273,35.645,-17.09,34.668
16.602,34.18,34.668,-14.16,41.016
44.434,36.133,33.691,-12.207,-20.02
36.133,33.691,27.344,-15.625,-5.859
19.531,29.297,25.391,-18.066,39.062
8.789,28.32,29.297,-15.137,14.648
17.09,24.902,31.25,-15.137,-43.457
42.48,24.414,39.062,-17.578,-32.227
41.992,29.785,42.969,-9.766,6.348
28.809,28.32,42.48,-7.324,5.859
11.719,25.391,41.992,-13.672,27.832
17.09,24.414,36.621,-11.719,35.156
50.781,24.902,36.621,-7.812,37.109
51.758,27.832,34.668,-7.812,55.176
31.738,27.344,32.227,-11.719,-25.879
16.113,28.32,35.156,-15.137,21.973
13.184,28.32,38.574,-13.184,51.758
35.156,27.344,38.086,-15.137,-20.996
42.969,27.344,34.668,-17.578,-6.348
30.762,24.414,32.715,-19.043,-12.207
17.09,32.715,28.32,-18.555,-62.012
14.16,38.574,17.578,-17.578,27.344
41.016,33.203,20.02,-16.602,37.598
49.316,32.227,28.32,-15.625,-27.832
34.668,31.738,27.832,-16.113,23.926
20.508,27.832,30.273,-13.672,34.668
11.719,23.438,30.762,-11.719,2.441
36.133,22.461,29.785,-13.672,11.719
53.711,22.461,27.344,-11.23,84.473
46.387,20.996,18.555,-6.348,49.805
29.785,18.555,12.207,-7.812,19.043
13.672,19.043,17.09,-14.648,37.598
33.691,20.02,22.949,-15.625,51.758
54.199,22.949,21.484,-15.625,69.824
34.18,25.391,18.555,-20.508,50.293
17.09,21.484,17.578,-22.461,3.418
4.395,19.043,16.113,-24.902,-6.348
17.09,23.438,18.066,-23.926,69.824
39.551,24.414,26.855,-17.578,29.785
32.715,21.973,39.062,-18.066,-45.898
19.531,18.555,38.574,-22.461,-20.02
0.488,18.555,27.832,-22.461,21.973
12.207,20.996,25.391,-16.602,12.207
37.109,24.902,28.32,-12.695,-53.223
31.25,25.879,28.809,-6.836,12.695
15.625,28.809,33.203,-1.953,62.5
0,28.32,42.969,-4.883,3.418
12.207,22.461,41.016,-5.371,38.574
37.598,22.461,36.621,-3.418,41.016
38.574,23.926,39.551,-3.906,19.043
29.297,22.461,43.457,-5.371,40.039
12.695,20.508,37.109,-6.348,0.488
14.16,23.438,26.855,-12.207,-8.789
46.875,22.949,26.855,-13.184,35.156
53.223,20.508,26.855,-4.883,-15.625
36.133,21.973,23.926,-3.418,1.953
21.484,26.855,18.066,-10.254,36.133
20.508,23.438,7.812,-12.207,-38.574
43.457,20.02,8.301,-11.719,-39.551
46.875,20.996,10.742,-11.719,24.414
32.227,22.949,4.883,-14.16,68.359
15.137,25.391,2.93,-20.996,88.379
6.348,24.902,6.836,-25.391,33.203
27.832,28.32,8.301,-26.367,12.695
32.715,30.273,3.906,-23.438,61.523
20.508,25.879,0.488,-23.438,42.969
7.812,28.809,0,-28.32,38.574
-6.836,33.691,4.883,-30.273,-6.348
9.766,35.156,11.719,-23.438,-14.16
25.391,38.086,18.555,-14.16,-8.301
15.137,38.574,20.996,-11.719,31.738
5.371,34.18,22.949,-12.207,58.105
1.953,29.785,25.879,-11.719,37.598
27.344,33.691,31.738,-4.883,91.309
42.969,37.598,35.645,-0.488,84.961
23.438,31.738,34.18,-5.859,14.648
6.348,27.344,30.273,-17.09,-9.766
-5.859,30.762,33.203,-23.926,8.789
15.625,35.156,32.715,-17.578,16.113
47.852,40.527,32.715,-5.859,34.18
40.527,41.016,34.18,-4.395,22.949
22.949,36.621,29.297,-7.812,4.395
9.766,36.621,34.18,-10.742,-12.207
22.461,37.598,33.691,-6.836,-6.348
42.48,34.18,34.18,-0.977,61.523
34.668,32.715,40.039,-2.441,82.52
20.02,34.18,42.969,-6.836,92.285
1.465,33.203,44.434,-13.184,75.195
3.906,31.738,45.898,-11.719,9.766
27.832,34.18,44.434,-4.395,37.109
27.832,30.273,32.227,-1.465,33.691
12.207,25.391,31.738,-6.348,-6.836
-6.348,23.438,38.574,-15.625,56.641
0,24.902,31.738,-13.184,39.062
30.762,28.809,29.785,-7.324,13.672
26.855,29.297,36.133,-9.277,75.684
18.066,33.691,32.715,-4.883,61.523
8.789,36.133,27.832,-2.93,20.508
4.395,35.645,20.996,-8.789,81.055
33.691,38.574,23.438,-4.883,33.691
44.922,38.574,31.738,0.488,-64.453
32.227,34.668,30.273,-1.953,-58.594
12.695,32.227,25.879,-5.371,-63.965
8.789,32.227,26.367,-0.977,-53.223
34.18,34.668,29.297,1.953,8.789
43.457,32.715,23.438,0.488,23.926
35.156,31.738,19.043,2.93,-10.742
18.555,33.203,23.926,4.395,0.488
10.254,32.715,26.367,4.883,21.973
34.668,31.25,23.926,2.441,28.809
44.922,31.25,23.926,6.348,49.316
25.879,33.203,18.555,5.371,73.73
7.812,34.18,17.09,4.395,47.852
-0.488,32.715,22.949,5.859,17.578
18.555,27.832,24.414,-0.977,20.996
37.109,30.762,24.902,-0.488,7.812
26.367,33.203,19.043,0.488,20.508
10.254,30.762,11.719,-3.418,47.852
-3.418,29.785,11.23,-8.301,41.016
10.742,26.367,9.277,-11.719,19.531
28.32,25.879,12.207,-10.742,60.059
22.949,27.832,8.789,-13.672,96.191
14.16,26.855,-0.488,-17.09,52.246
-0.977,26.367,0,-15.625,38.574
13.184,27.344,5.859,-14.648,19.531
40.527,30.762,7.812,-13.184,0.488
35.645,32.227,3.418,-11.719,-20.996
18.555,29.297,2.441,-18.066,19.531
5.371,27.832,6.348,-24.902,37.598
16.602,26.367,3.906,-21.973,-32.715
40.039,24.902,6.348,-14.16,-34.18
29.785,25.879,9.277,-12.207,-13.672
11.23,27.832,8.301,-11.719,32.715
-3.906,29.785,14.648,-11.719,13.184
1.465,32.227,18.555,-16.113,-22.949
23.926,30.273,16.113,-18.066,-22.949
23.926,30.273,20.508,-12.695,-40.527
17.09,27.832,19.531,-6.348,35.645
4.395,27.344,18.555,-6.348,59.57
7.324,31.25,24.414,-1.953,45.898
35.156,30.273,27.832,2.93,18.555
37.598,31.25,27.832,0.488,16.113
24.414,27.832,20.02,-3.906,67.871
6.836,25.391,10.254,-13.184,55.176
3.906,30.273,4.395,-11.719,7.324
32.227,31.25,6.836,-5.371,25.391
37.109,28.32,7.812,-5.371,26.855
21.973,27.344,6.348,-4.883,0
8.789,26.367,5.371,-5.371,53.223
3.418,24.414,8.301,-3.418,47.852
31.25,23.926,14.648,-0.488,33.691
48.34,22.949,19.531,1.953,61.035
34.18,25.391,16.113,0.977,26.367
12.695,24.414,5.859,-4.883,-83.984
1.953,19.043,0.488,-12.207,-46.875
25.879,20.508,3.906,-9.766,55.664
43.457,25.879,6.836,-4.883,39.551
35.156,29.297,3.906,0,51.758
17.09,28.32,-1.953,4.883,19.043
8.789,25.391,-4.883,6.348,-34.18
28.809,24.902,3.418,6.348,-7.324
37.598,24.902,8.301,2.93,48.34
25.879,25.879,6.348,2.441,16.602
16.113,30.273,3.418,2.93,-5.371
1.953,30.762,2.93,-0.977,0
17.578,28.809,4.883,-0.488,37.109
45.41,29.785,8.301,6.348,52.734
37.598,28.809,15.625,2.93,72.266
24.902,26.367,21.973,0.488,110.352
10.742,25.391,28.809,0,59.57
14.648,20.508,26.855,-7.324,-18.066
38.086,20.02,25.879,-2.93,-41.992
35.156,23.438,27.832,1.953,-13.672
20.996,17.09,25.391,-3.906,-35.645
2.441,11.719,26.367,-9.766,-63.477
9.277,12.695,25.879,-9.277,23.926
40.039,15.137,24.414,-1.953,74.707
35.645,18.066,29.785,-0.488,72.266
18.555,20.02,34.668,1.465,54.688
4.395,21.484,31.738,0.488,4.883
7.812,22.949,29.297,-2.441,51.27
35.645,24.902,32.227,0.488,41.992
38.086,25.879,33.203,3.418,2.441
29.297,30.762,24.902,4.395,2.93
15.625,37.109,21.484,2.441,-7.324
14.648,40.039,25.391,4.883,-5.859
50.293,40.527,26.855,13.184,2.93
53.711,42.969,30.273,15.137,41.992
33.203,42.48,31.738,11.719,50.781
19.531,40.039,33.691,7.812,33.691
10.254,37.109,36.133,6.348,1.465
33.691,38.086,30.762,8.789,-4.883
47.363,45.41,31.738,8.789,-31.738
34.668,50.781,32.227,9.766,-12.207
20.508,52.246,23.438,14.648,3.906
11.719,49.805,23.438,20.996,-8.789
34.18,49.316,32.715,23.926,26.367
50.293,52.246,38.086,24.414,-1.465
39.551,50.781,37.598,26.855,-12.695
20.508,45.898,31.738,20.02,34.668
2.93,42.48,27.344,9.766,80.078
23.438,43.945,33.203,11.719,108.887
43.945,47.363,41.504,11.719,77.148
29.297,45.898,43.945,10.254,39.551
12.207,41.016,40.527,5.371,46.387
-5.371,40.039,41.016,-3.418,26.367
8.301,38.086,44.922,0,1.953
29.297,38.086,44.922,2.441,61.035
23.438,40.039,41.504,2.441,51.27
14.648,35.156,37.598,5.371,-27.344
0,31.738,34.668,3.418,17.578
12.207,28.809,39.551,3.906,-17.578
39.551,30.273,38.574,12.207,-19.043
40.039,37.598,27.832,19.531,76.66
26.367,41.016,19.531,22.949,79.102
9.277,36.621,17.578,16.602,51.27
18.066,33.691,19.531,11.719,57.129
41.992,31.25,19.043,15.137,50.293
36.621,30.273,26.855,20.02,10.742
21.484,32.227,34.18,19.043,19.531
6.348,30.762,27.344,9.766,48.34
14.648,28.809,21.973,11.23,31.738
44.922,29.297,28.809,19.043,20.508
43.457,29.297,28.809,21.484,5.859
29.785,27.832,25.879,21.973,-18.066
15.625,26.855,20.508,18.066,22.949
13.672,25.879,13.672,17.09,22.949
35.645,24.414,17.09,16.113,31.738
35.645,21.973,21.973,10.742,59.57
21.973,19.043,18.066,10.254,44.922
10.254,17.578,15.137,10.742,23.438
6.348,15.137,15.625,8.301,-32.227
32.227,18.066,23.438,13.672,0.977
41.992,18.555,25.879,20.02,65.918
35.645,19.043,19.531,19.531,54.199
26.367,22.949,18.066,16.602,-25.391
15.137,24.414,21.484,12.695,10.742
37.598,28.809,19.531,10.254,62.988
51.27,32.227,17.578,14.16,31.738
40.039,30.273,19.531,21.484,48.828
29.785,25.879,22.461,20.02,20.996
20.02,26.367,22.461,17.578,34.668
37.598,29.297,13.672,18.555,89.844
55.664,32.227,16.602,21.484,46.387
47.363,33.203,26.367,22.949,33.203
31.25,30.273,20.996,18.066,41.992
16.113,26.367,14.648,10.742,0.977
33.691,22.461,14.648,9.277,-34.18
53.711,22.949,14.16,17.09,-29.785
36.133,22.949,18.066,18.066,34.18
19.531,22.949,22.949,15.137,74.707
7.324,23.926,26.855,18.066,46.875
20.996,20.996,30.762,20.02,57.129
48.828,20.02,39.551,21.973,17.578
46.387,21.484,45.898,23.926,-6.836
31.25,20.508,38.574,23.926,0.488
12.695,19.043,33.203,21.973,3.418
21.973,19.043,29.297,19.531,-1.953
46.875,17.09,29.297,18.555,36.621
40.039,16.113,33.691,15.137,47.363
24.902,18.555,35.156,11.23,7.324
9.766,17.09,35.156,7.812,1.953
16.602,16.602,37.109,8.301,-6.836
42.969,16.113,38.574,14.648,43.945
37.598,9.766,38.086,14.16,23.438
20.508,6.836,38.086,6.348,-46.387
1.953,8.789,39.551,2.93,3.418
7.812,7.324,41.992,4.883,64.453
35.645,5.371,42.48,7.812,91.309
35.645,7.812,36.621,9.277,47.852
29.297,10.254,29.297,13.672,8.789
15.137,13.672,23.438,9.766,36.133
11.23,17.578,22.461,8.789,17.09
37.598,16.602,22.949,8.301,28.32
44.434,19.043,19.043,5.859,34.668
32.227,19.043,20.02,9.766,-8.789
17.578,16.602,18.555,1.953,22.949
6.836,15.625,19.043,-3.418,83.496
32.715,19.531,27.344,2.441,84.961
46.875,21.973,29.297,4.883,-7.812
30.762,19.043,29.785,5.371,13.184
11.23,16.113,26.367,-1.465,68.359
3.906,14.648,22.949,-2.441,30.762
32.715,20.996,24.902,4.883,-52.734
43.457,21.973,18.555,4.883,-30.762
28.809,18.066,9.766,2.441,0
13.184,20.02,8.789,0.977,-24.414
-4.883,19.043,9.766,-3.906,20.996
15.625,19.531,8.789,-1.465,34.668
39.062,20.996,15.137,2.441,15.625
28.32,23.438,20.02,1.953,-1.953
13.184,25.879,14.16,1.953,-4.883
-2.93,23.438,14.16,-1.465,23.438
10.742,19.043,17.578,0.977,77.637
33.691,20.02,18.066,9.277,10.254
25.391,19.531,15.625,13.672,-11.719
11.23,19.531,15.625,19.043,40.039
-3.418,20.996,16.602,17.578,4.395
8.301,12.695,8.789,10.742,10.254
32.227,12.207,3.418,10.254,54.199
26.855,18.066,4.395,13.184,43.945
16.602,17.09,0,8.301,58.594
3.906,17.578,-3.418,2.441,52.246
14.16,16.602,3.906,5.859,-3.418
41.016,13.184,9.766,7.324,-24.902
35.156,16.602,11.719,8.301,19.531
20.508,19.043,11.719,10.742,59.082
5.371,20.996,13.672,5.859,36.621
8.789,22.461,18.066,2.93,37.109
33.203,22.949,19.531,0.977,89.355
32.227,21.484,20.508,-0.488,96.191
18.555,18.555,20.996,-0.977,-1.465
1.465,19.531,19.531,-3.418,9.277
2.441,18.066,18.555,-0.488,82.031
32.227,19.043,23.926,2.441,65.918
31.25,25.879,27.344,0.977,41.016
18.066,31.25,24.414,3.906,71.777
7.812,29.785,20.02,3.906,51.758
-0.488,26.367,16.602,0,61.035
26.855,26.855,17.578,-1.953,31.738
37.109,30.273,28.809,2.93,26.367
22.949,30.762,29.785,10.742,89.355
12.695,34.18,18.555,12.695,53.711
4.395,36.133,20.996,11.23,42.48
26.855,31.738,25.879,10.742,48.828
38.574,28.809,25.879,10.742,62.5
26.367,30.273,27.344,13.184,36.621
17.578,30.273,31.25,15.625,-29.785
15.137,30.762,33.203,17.578,4.395
31.25,27.344,21.973,15.625,21.484
38.574,20.02,18.066,12.695,-15.625
25.879,18.066,19.531,16.113,-19.043
6.348,20.02,17.09,13.184,27.832
-16.602,21.973,16.113,2.93,71.289
-4.883,17.09,22.461,-0.977,12.695
18.066,16.113,24.414,1.953,28.32
13.184,22.461,22.461,-1.465,104.004
-4.883,21.484,22.949,-11.719,58.105
-17.578,18.555,25.879,-8.789,20.996
-4.883,16.602,28.32,-3.418,3.418
17.09,19.043,29.297,-4.395,-60.059
11.719,19.043,28.809,-2.93,-42.969
0.977,18.066,24.414,0.488,24.902
-11.719,17.09,26.367,-3.418,0
-4.395,17.578,24.414,-6.836,13.184
26.367,20.996,21.973,-2.93,42.48
26.855,23.438,23.926,0,26.855
12.207,22.461,19.043,-5.859,13.184
-5.371,21.484,17.09,-8.789,1.953
7.812,19.531,20.508,3.418,19.043
37.598,17.09,23.438,6.348,44.922
27.832,15.137,18.066,1.953,60.059
15.137,16.602,9.766,2.93,76.66
3.418,16.602,11.719,2.93,91.797
4.883,10.254,11.719,5.371,31.738
28.32,6.348,13.184,2.441,-7.324
22.949,9.766,20.996,2.441,27.832
12.695,16.113,20.996,8.301,33.203
1.465,20.02,13.672,6.348,50.781
-9.277,19.531,17.578,4.395,75.195
10.254,18.066,24.902,3.418,78.125
18.066,16.602,23.926,2.441,66.406
9.766,19.043,20.02,0.977,20.996
0.977,26.855,19.043,0.488,-2.441
-4.883,26.367,24.414,3.418,29.297
20.508,28.32,29.785,11.719,37.598
36.621,31.738,34.18,19.531,18.066
29.785,30.762,39.062,23.926,32.227
19.531,34.18,42.48,24.902,9.766
11.719,33.203,47.363,21.973,22.949
38.086,31.738,51.758,24.414,16.113
55.664,35.156,56.641,27.344,5.859
44.434,34.18,55.176,24.414,50.293
30.273,35.156,51.758,22.461,-24.902
15.137,38.574,49.316,18.555,-8.301
33.691,34.18,37.598,17.09,14.648
52.734,32.715,31.25,21.484,-20.02
42.969,32.715,28.32,20.508,-4.395
31.738,34.18,24.902,16.113,44.434
12.207,36.133,28.32,6.836,2.441
18.066,31.738,31.738,0.488,-39.062
35.645,29.297,37.598,1.465,7.324
23.438,33.203,41.504,2.441,8.301
4.395,34.668,34.18,0,-2.441
-19.043,32.715,21.484,-8.301,11.23
-6.348,32.227,19.043,-8.301,11.23
22.949,29.785,23.438,-1.465,63.477
14.16,29.785,19.043,5.859,79.102
6.836,35.156,14.16,14.16,20.02
-4.395,30.762,14.16,18.066,21.973
3.906,24.902,8.789,18.066,22.461
41.992,27.344,2.93,21.973,30.762
45.41,29.297,-3.906,28.809,15.625
30.273,26.367,-6.348,30.273,43.945
20.02,24.414,-5.371,29.297,64.453
24.414,25.391,-7.324,30.273,39.551
51.27,25.879,-4.395,29.785,38.086
53.223,25.391,-10.742,25.391,37.109
36.621,24.414,-17.09,20.02,27.344
18.555,18.555,-16.113,16.602,80.078
21.484,17.578,-16.113,18.066,70.312
51.27,23.926,-7.324,21.973,-19.043
50.293,25.879,4.395,20.996,-4.395
27.832,26.367,8.789,16.113,19.043
9.277,27.832,6.348,6.836,-0.977
5.859,28.32,2.441,3.418,-8.301
34.18,29.297,-0.977,4.395,25.391
43.457,34.18,-3.418,2.93,53.223
26.855,38.574,-5.859,3.906,21.973
14.648,41.504,-3.906,7.812,-1.953
6.836,41.504,5.859,11.23,-33.691
27.344,36.621,18.066,18.066,-17.09
44.434,37.109,22.461,25.879,19.531
33.691,36.133,20.02,25.879,11.719
20.996,30.762,20.508,24.902,31.25
15.137,28.32,23.926,29.785,49.805
36.133,26.367,17.09,29.785,27.344
55.176,25.879,15.137,31.738,31.738
46.875,29.297,24.902,36.133,79.59
32.227,33.691,32.227,34.668,69.336
17.578,34.18,33.691,29.785,8.301
34.668,33.203,37.109,33.203,25.879
56.641,32.715,38.086,35.156,15.137
43.945,31.25,26.855,27.832,33.203
28.809,27.832,20.508,22.461,80.566
15.625,32.227,15.137,19.043,47.852
23.926,35.156,8.789,14.16,65.918
44.922,33.203,11.719,16.113,67.383
41.504,33.691,17.09,15.625,45.41
26.855,30.762,16.113,12.207,-25.879
5.859,28.32,12.695,3.418,-57.617
13.184,27.832,20.996,0,24.902
40.039,25.391,26.855,7.812,13.184
34.668,24.902,21.973,11.23,27.832
20.996,24.414,16.602,13.672,60.059
2.441,23.926,13.672,9.766,32.715
7.812,28.32,13.184,10.742,16.113
35.645,26.855,10.254,15.137,23.438
33.203,24.902,11.23,14.648,42.969
19.043,26.855,12.695,10.742,40.039
3.418,25.879,13.672,5.371,55.664
6.348,23.926,14.648,7.324,37.109
30.273,21.484,16.113,10.254,0.977
31.738,22.949,16.602,10.254,29.785
21.973,23.438,12.207,11.719,-3.906
5.371,21.484,10.254,9.766,2.93
1.953,20.508,7.812,9.766,38.086
30.273,19.043,11.23,12.207,14.16
36.621,20.508,17.09,8.789,55.664
26.855,20.508,14.16,10.742,65.43
14.16,18.066,7.812,10.254,15.625
7.812,20.02,7.812,5.859,-5.859
41.016,22.461,13.672,13.184,39.551
51.758,25.391,17.09,21.484,51.27
33.203,26.855,16.602,24.902,3.418
21.973,22.949,17.578,22.461,22.461
15.137,23.438,20.508,21.973,41.992
33.203,25.879,22.461,24.414,59.57
45.41,27.344,27.344,27.832,29.785
31.738,29.785,28.809,26.367,6.348
19.531,28.32,22.461,21.484,-7.324
6.836,26.367,16.602,18.066,16.113
21.484,26.855,19.531,16.113,63.965
43.457,30.762,25.391,17.09,80.078
29.297,32.227,24.902,15.137,81.543
8.301,28.809,17.578,10.254,64.453
-8.301,26.855,13.184,6.348,22.461
5.371,25.879,17.578,6.348,5.371
28.809,26.855,17.578,10.254,52.734
19.531,25.879,10.742,8.789,53.711
5.859,24.902,7.812,2.441,-31.25
-5.859,21.973,10.742,-1.953,-7.812
6.836,19.531,14.648,0.488,105.469
33.203,20.508,17.578,5.371,124.023
29.785,20.996,18.066,8.789,88.867
20.996,23.438,26.855,12.695,70.801
11.719,26.855,35.645,14.648,54.688
20.508,24.414,36.133,20.996,41.992
49.316,21.973,34.18,24.902,5.859
41.504,22.461,33.691,23.438,-17.09
20.02,21.484,29.785,22.461,22.461
4.395,23.926,25.879,23.926,-7.812
1.953,25.879,27.344,20.996,34.18
29.297,26.855,31.738,17.09,0.977
36.621,29.297,37.598,15.625,-54.688
23.438,27.344,38.574,10.254,-2.441
7.324,24.902,30.273,2.441,16.602
6.836,24.902,25.391,0.488,40.527
35.156,26.855,30.762,2.441,28.809
35.156,27.832,29.785,0.488,-24.902
17.09,26.367,27.344,1.953,-18.555
11.719,27.832,28.809,6.348,38.574
10.742,28.32,25.391,11.719,6.836
31.25,27.344,19.531,13.672,-46.875
41.016,29.785,22.461,14.648,20.508
32.227,33.203,25.879,18.555,31.738
18.066,36.621,20.508,12.207,30.762
12.695,37.109,20.508,10.742,94.238
40.039,35.645,25.391,19.043,51.758
53.223,34.18,27.344,20.02,23.926
36.621,30.273,36.133,19.043,73.73
20.02,25.879,38.086,19.531,29.297
9.277,23.438,27.344,14.16,1.953
26.367,23.926,20.996,11.23,-0.488
41.992,28.809,20.02,16.113,9.766
31.25,32.715,20.02,20.996,52.734
19.531,33.203,15.625,23.438,22.461
3.418,32.227,14.16,16.113,0
11.23,30.273,22.461,10.742,-17.578
32.715,30.273,21.973,13.672,-37.109
25.391,29.297,16.113,15.625,-2.441
4.883,23.438,16.113,13.184,-2.441
-10.254,18.555,13.184,5.371,14.648
1.465,12.695,3.906,0,52.734
22.461,12.207,7.812,-2.441,48.828
20.02,15.625,15.625,-0.977,5.371
4.883,9.766,9.766,-3.418,0.977
-13.184,5.371,9.277,-6.348,12.207
-0.488,9.277,7.812,-4.395,-14.648
28.809,12.207,0.488,-1.465,-35.156
24.902,16.602,-2.93,-2.441,27.344
8.301,15.137,-9.277,-3.418,88.379
-6.836,10.254,-5.859,-0.488,70.312
-4.395,11.23,0,-0.977,69.824
21.973,12.207,1.465,2.441,44.922
22.949,11.719,2.441,0.488,-25.879
5.859,9.766,4.883,-7.324,14.16
-12.207,12.207,9.277,-7.812,59.57
-15.625,15.625,6.836,-0.977,-31.738
12.207,17.09,6.836,4.395,10.254
20.508,17.578,13.672,8.301,4.395
8.789,16.113,15.137,9.277,-20.508
-5.859,14.16,15.137,4.883,-27.832
-7.324,16.113,13.184,3.418,-43.457
19.531,19.043,15.625,6.836,39.062
26.855,22.461,18.066,11.23,52.734
15.137,24.902,18.066,8.789,67.871
0.488,23.926,15.137,0.488,69.824
-5.371,23.926,5.371,-1.953,64.453
18.066,23.926,7.324,-0.488,71.777
26.855,22.461,10.742,-1.465,74.219
20.508,19.531,15.137,5.371,38.086
10.254,17.09,20.02,0.488,42.969
0.488,16.113,16.113,-8.789,39.062
19.531,17.578,17.578,-4.883,17.578
36.133,18.066,19.043,1.953,-18.555
22.949,16.602,16.602,2.441,-10.742
2.93,15.625,19.043,0.488,104.492
-7.324,13.672,19.531,2.441,73.242
12.207,14.16,25.391,7.324,-46.387
33.691,17.09,32.715,7.812,42.48
27.832,15.625,24.414,2.441,62.5
14.648,12.207,15.625,-1.953,1.465
0.977,19.531,10.254,-4.883,-20.02
14.648,24.902,13.672,0.488,-5.859
37.109,24.414,19.043,7.812,40.527
34.18,24.414,14.16,10.742,31.25
22.461,23.926,8.301,13.672,3.906
5.371,24.902,4.883,9.766,1.465
11.23,20.996,1.953,2.93,-3.418
38.086,19.043,0.977,2.441,-30.273
36.621,28.32,2.93,3.906,-9.277
25.391,37.109,-0.977,2.441,41.504
14.16,38.574,-3.418,0.488,8.301
18.066,36.133,3.418,2.441,-25.879
41.016,37.109,6.836,5.859,-3.906
41.016,42.48,6.348,9.277,34.18
26.367,42.48,12.207,8.301,85.938
4.395,42.969,14.648,2.441,68.848
6.348,45.41,13.184,0.977,27.832
39.551,44.922,13.184,5.859,-25.391
37.109,44.434,11.719,5.859,-11.23
21.973,41.504,4.883,6.348,73.242
21.973,41.504,4.883,8.301,49.805
22.949,41.992,9.766,8.789,4.883
41.504,39.062,11.719,7.812,10.742
48.34,39.551,15.137,8.301,11.719
39.551,41.016,17.578,9.766,-1.953
26.855,40.039,16.113,6.348,3.418
22.949,34.668,6.348,7.324,28.32
45.898,27.344,-4.395,13.184,71.777
51.27,26.367,-7.812,13.672,64.941
36.133,23.926,-5.371,12.695,19.043
23.926,21.973,3.906,14.16,-4.883
14.648,23.926,6.348,14.16,12.695
33.203,24.414,8.301,14.648,20.02
47.363,23.438,6.836,16.602,-9.277
37.109,22.949,1.465,15.137,3.906
21.484,19.531,3.418,10.254,34.668
9.277,16.113,3.418,5.859,37.598
23.438,13.672,5.859,4.883,10.254
39.062,10.742,8.301,4.395,16.602
29.297,13.184,11.719,5.859,59.57
18.555,18.555,11.23,7.812,23.926
5.371,18.555,13.184,7.324,-5.859
22.461,14.648,20.996,13.184,0.977
48.34,18.066,26.367,18.555,-0.977
38.574,21.484,26.855,17.578,-1.953
25.879,19.531,24.902,13.672,56.152
9.277,18.066,28.32,7.812,74.707
19.531,18.555,24.414,6.348,55.176
40.527,14.648,25.879,1.953,81.055
35.156,13.184,39.551,0,1.953
23.926,12.207,46.387,1.953,-15.625
4.395,10.742,45.898,0,24.902
8.301,10.254,44.922,0.977,-17.09
35.645,8.789,47.852,6.348,-10.254
34.18,9.766,46.875,5.371,6.348
22.461,14.16,49.805,6.836,40.039
12.695,18.555,61.035,12.695,68.848
18.066,18.555,63.965,14.648,11.719
40.039,15.625,58.105,10.742,5.859
30.273,14.16,50.293,5.859,-23.438
16.113,14.648,49.316,1.465,4.395
3.418,13.184,50.781,-2.441,65.43
2.441,15.137,50.781,0.977,63.965
29.297,17.09,47.363,2.93,68.359
34.668,12.695,42.969,2.441,41.992
26.367,13.184,41.504,2.441,33.203
19.531,18.066,43.457,3.906,8.301
12.207,16.113,44.434,1.465,0
34.18,16.602,41.016,0.977,104.98
45.41,21.484,41.016,2.93,125.488
34.668,24.414,41.504,3.906,74.219
21.973,26.855,41.504,2.441,45.898
11.23,30.273,45.41,-3.418,30.762
31.25,31.25,38.574,-6.348,42.969
41.504,30.762,30.273,-1.953,44.434
32.715,32.227,34.18,4.395,20.508
19.043,31.25,32.715,6.348,-11.719
8.301,30.273,27.832,3.418,19.043
31.738,32.227,30.762,6.348,20.02
46.875,30.273,39.062,10.742,11.23
32.227,33.203,36.133,9.766,28.32
19.531,34.668,22.949,7.324,60.059
5.371,31.738,25.879,2.93,56.152
20.508,28.809,34.668,0.977,48.828
40.039,28.32,31.738,2.441,67.383
30.273,29.297,28.809,2.441,34.18
21.973,28.32,34.18,6.348,27.344
13.672,26.855,39.062,9.766,-25.391
29.297,30.762,40.039,8.789,-6.836
54.688,32.227,40.039,18.555,36.133
48.34,28.809,37.598,21.973,42.969
30.273,28.809,33.691,13.672,25.879
13.184,31.738,35.156,12.695,-12.207
23.926,32.715,38.086,17.578,26.367
45.898,31.25,40.527,16.602,54.688
40.527,27.344,39.551,13.672,7.324
31.738,28.32,41.504,14.16,28.32
17.578,30.273,40.527,13.184,30.273
21.973,28.32,36.133,19.043,-4.883
48.34,27.344,37.109,19.043,35.645
41.504,27.832,35.156,9.277,69.336
25.391,27.832,28.809,11.23,33.203
10.742,26.367,21.973,8.301,63.965
4.883,20.508,10.254,2.93,48.34
31.738,23.926,13.184,2.441,-1.953
31.25,28.809,24.414,0.488,63.965
12.207,22.949,24.414,1.953,71.777
0.488,19.043,20.508,-3.418,13.184
-0.488,13.672,21.973,-2.93,45.41
29.297,10.742,26.855,6.348,57.129
41.016,17.578,33.691,11.719,74.219
32.715,21.973,34.668,16.113,41.504
19.531,20.02,29.785,15.625,-26.855
9.766,18.555,35.156,13.184,17.09
35.645,21.484,33.203,9.766,19.531
45.41,21.973,25.879,3.906,20.996
29.785,21.484,31.25,8.789,41.016
19.043,22.461,37.109,12.207,53.223
8.789,25.391,37.598,6.348,47.852
27.832,29.785,38.086,8.301,22.461
41.992,32.227,38.086,10.742,67.383
30.762,35.156,37.109,7.812,42.48
18.555,35.645,40.527,6.348,-7.324
6.348,34.668,46.387,6.836,27.832
20.996,36.621,50.781,4.883,-9.277
40.527,33.203,54.199,1.465,-16.602
29.297,32.227,55.664,-3.418,28.32
11.23,35.156,56.152,-9.766,23.438
-6.836,33.203,51.27,-11.23,39.551
11.719,29.785,45.41,-1.953,87.891
35.645,33.203,48.34,1.465,98.145
26.367,39.062,50.293,0,3.906
17.578,38.574,47.363,5.371,-3.418
4.883,33.203,52.246,6.348,14.648
15.137,34.18,59.082,9.766,16.602
41.992,35.156,51.27,18.555,41.504
37.598,32.715,44.922,20.996,-6.836
23.438,33.203,44.922,19.043,-46.875
8.789,31.738,42.969,17.578,23.438
19.043,29.297,42.969,22.949,15.625
46.875,29.297,43.945,27.832,38.574
46.875,32.715,41.504,26.367,98.633
31.738,34.668,35.156,20.508,12.695
14.16,32.715,25.391,14.16,4.395
19.531,33.691,11.23,13.184,29.297
45.41,35.645,8.301,9.277,32.227
45.41,37.598,14.16,10.254,33.691
34.18,40.039,13.184,11.719,39.062
16.113,40.039,12.207,3.418,50.781
8.301,39.062,14.648,-2.93,4.883
29.297,41.504,22.949,-6.348,38.574
33.691,40.527,16.602,-5.371,55.176
16.113,36.621,10.254,-4.883,0.977
-2.441,36.621,14.648,-10.742,-11.719
-5.859,33.203,15.625,-13.184,46.387
20.996,33.203,19.043,-5.859,68.848
29.297,36.133,24.414,-0.977,21.484
18.555,35.156,21.484,-2.441,89.355
7.812,36.621,14.648,0,87.402
3.906,41.016,11.23,1.953,47.852
34.18,41.016,17.578,6.348,86.426
50.781,37.109,20.996,12.695,47.852
37.598,36.133,15.625,12.695,26.367
25.391,37.109,10.742,8.789,12.695
16.602,39.062,9.277,6.836,21.484
34.18,39.062,11.719,9.277,17.578
51.27,41.016,11.23,13.184,-3.418
42.48,41.016,7.812,11.719,38.086
31.738,35.645,7.324,6.836,-17.09
21.484,35.645,11.719,6.348,-8.301
37.109,36.133,11.719,6.348,100.586
59.082,33.691,12.207,7.324,62.012
46.387,31.738,12.207,7.324,21.484
29.297,28.32,9.277,3.906,48.34
14.648,28.32,9.277,1.465,3.906
25.391,29.785,8.789,3.906,32.227
46.387,29.297,13.184,7.324,14.16
30.273,21.484,20.508,2.441,-7.812
11.23,12.695,17.09,-0.488,93.262
-0.488,15.137,11.719,3.418,78.613
11.23,19.531,9.766,6.836,35.645
38.086,21.973,11.719,5.371,67.383
33.691,24.414,11.23,4.883,5.371
18.066,29.297,9.277,2.93,-49.805
5.371,30.762,11.719,-1.953,2.441
10.254,26.855,14.16,1.953,55.664
33.691,23.438,22.461,9.277,6.836
35.645,22.949,22.949,10.254,21.973
24.902,25.879,17.09,7.324,73.242
6.836,27.344,7.324,3.906,19.043
3.418,26.367,0,1.465,9.766
38.574,24.902,0,8.789,15.625
41.016,23.926,8.789,12.695,0
21.973,22.949,19.043,5.859,29.785
11.719,20.508,19.043,1.953,25.879
6.836,17.09,19.043,0.977,30.273
28.809,13.184,21.973,6.348,45.41
39.551,15.625,20.508,9.766,39.062
29.297,22.461,15.625,8.301,58.105
13.184,21.973,17.09,1.465,56.641
7.812,19.531,14.16,-3.418,13.672
34.668,25.391,5.859,0,35.645
44.922,29.297,4.883,3.906,78.125
34.18,27.832,14.16,7.812,48.34
22.949,25.879,24.414,8.789,44.434
8.789,21.973,33.691,6.836,-12.207
29.297,19.043,36.621,11.23,-61.523
47.852,20.508,32.715,17.09,-49.316
34.18,20.508,28.809,15.625,6.836
18.555,19.043,23.438,11.719,41.992
5.859,23.438,24.902,8.789,31.25
26.367,22.461,30.762,10.254,33.691
42.969,19.531,33.203,9.277,10.742
28.809,20.508,25.879,10.742,-15.625
20.996,24.902,20.02,15.137,-1.953
9.766,29.297,16.602,10.254,30.762
22.461,30.273,17.578,10.254,17.09
47.363,27.832,23.438,13.672,43.457
40.039,24.902,23.438,12.207,58.105
20.508,26.855,27.832,9.766,-7.812
6.836,29.297,29.785,11.23,-14.648
18.066,27.832,20.508,15.625,-0.488
41.504,27.344,18.066,19.531,46.875
41.504,29.297,20.508,23.438,45.41
30.762,29.785,14.648,20.996,16.602
19.043,24.414,10.742,17.09,100.586
22.949,17.09,15.625,18.066,53.711
42.969,17.578,20.996,14.648,20.508
39.551,24.902,19.531,8.789,106.934
27.832,30.762,13.184,5.859,33.203
14.16,31.738,14.16,5.859,-1.953
14.648,34.18,15.137,7.812,82.52
38.086,39.062,8.789,4.395,31.25
40.039,39.551,1.953,2.441,16.113
29.297,37.109,1.953,4.883,32.715
15.137,35.156,1.465,-0.488,31.738
10.742,29.785,-5.371,-7.812,37.109
31.25,31.738,-10.742,-10.254,37.109
34.18,34.18,-8.301,-11.719,12.695
24.414,30.762,-4.395,-12.695,-19.043
11.719,34.668,-8.789,-15.625,49.805
7.812,36.621,-13.184,-14.648,44.922
35.156,32.715,-5.859,-11.23,-0.977
43.457,32.715,0.488,-7.324,20.508
30.762,33.691,1.465,-3.906,3.906
15.137,31.25,5.859,-2.93,7.324
4.883,30.273,11.23,1.465,46.387
29.297,28.809,21.484,10.742,-5.371
48.34,29.297,30.273,16.602,-56.641
36.621,30.273,29.297,19.531,-4.395
19.043,27.344,22.949,19.531,16.113
5.371,24.902,14.648,13.672,23.438
20.996,23.926,11.719,10.254,-19.531
36.133,25.391,11.719,10.254,-41.504
23.926,28.32,11.719,11.719,-11.23
8.789,28.809,13.672,13.672,12.207
-6.836,26.367,7.812,12.695,11.23
10.254,25.391,6.836,10.742,-4.395
31.25,25.879,6.348,14.16,-10.742
21.484,25.391,-2.441,14.648,41.504
11.23,27.832,-6.348,9.277,36.621
-2.93,27.832,-8.789,4.395,13.184
3.418,20.508,-14.16,1.953,9.277
27.832,19.531,-12.695,1.953,5.371
25.391,25.391,-14.648,6.348,51.27
15.137,22.949,-20.508,6.836,30.273
-3.906,23.926,-12.695,0.977,47.852
3.418,31.738,-2.441,7.812,82.031
39.062,31.25,4.395,18.066,36.133
38.574,31.738,13.184,20.02,65.918
25.391,32.227,20.508,17.09,73.73
7.324,26.855,21.973,11.23,9.766
7.812,27.344,18.555,10.742,28.32
35.156,27.832,23.438,17.09,22.461
35.156,25.391,30.273,19.531,-33.691
21.973,24.902,26.855,15.625,-18.555
7.324,26.367,33.203,12.207,44.922
4.883,26.855,36.621,11.23,40.039
31.25,23.926,33.691,13.184,40.039
36.621,21.973,34.668,18.066,50.293
21.484,22.461,34.18,16.602,4.883
8.789,25.391,38.574,12.207,24.414
9.766,25.879,45.41,15.625,15.625
35.156,23.438,42.48,16.113,-7.324
37.109,22.461,42.48,8.301,-10.742
21.973,22.949,43.457,5.371,-21.973
11.23,23.926,37.598,5.859,26.855
0,23.926,41.016,10.254,33.203
29.297,24.414,53.711,17.578,5.371
44.922,25.391,48.34,15.625,32.715
29.785,25.879,46.387,14.648,32.227
17.578,25.391,54.688,18.066,20.508
7.324,25.391,57.129,18.066,-15.625
26.855,23.438,59.57,18.066,10.742
45.41,24.902,63.477,18.555,33.691
35.156,27.832,59.57,19.043,63.965
20.02,23.438,55.664,22.461,30.762
6.836,26.367,59.082,19.531,-62.988
24.414,29.297,56.152,20.508,-28.809
47.852,30.273,49.316,24.902,6.348
38.574,30.273,46.387,22.461,-2.441
19.531,28.809,37.598,16.602,35.645
0.488,26.367,28.32,12.207,85.449
12.695,21.484,27.832,15.625,41.504
39.062,21.484,28.32,19.531,4.395
32.715,20.996,25.879,21.484,19.531
17.09,18.066,27.832,19.531,40.527
1.465,21.484,30.762,16.113,26.367
10.742,22.949,34.18,16.113,18.555
39.062,23.926,40.527,15.137,14.16
40.527,24.414,41.504,14.16,30.762
26.855,23.926,33.691,10.742,40.039
4.883,23.438,28.809,5.371,44.922
8.301,21.973,37.109,9.766,68.848
35.645,24.414,43.457,13.672,55.176
34.18,23.438,39.062,10.254,36.133
23.438,19.043,29.297,11.719,41.992
9.277,20.508,20.02,13.184,-13.184
11.719,23.438,19.043,12.207,-20.996
38.086,21.484,15.625,13.672,14.16
38.086,23.438,17.578,14.648,41.992
27.344,28.32,19.043,16.113,45.41
15.625,30.762,15.625,16.113,-20.02
10.742,31.738,19.043,14.16,8.789
31.738,28.809,22.949,14.16,75.195
42.48,30.762,22.949,19.531,88.379
32.227,31.25,17.09,20.02,102.051
12.207,27.832,18.066,17.09,118.164
4.395,24.902,19.043,13.672,99.609
33.203,22.461,18.066,17.578,70.312
45.898,22.949,17.578,21.973,58.594
32.715,23.926,12.695,16.113,-5.859
19.531,23.926,10.254,15.137,-34.668
5.859,20.508,6.348,13.184,3.418
28.32,23.438,8.789,18.555,-1.465
47.852,25.879,20.02,26.367,11.23
38.086,19.043,21.973,29.785,20.996
30.273,17.578,22.461,31.738,27.832
20.02,21.484,18.066,31.25,27.832
35.645,26.367,11.23,34.18,-16.113
52.734,24.902,16.602,35.156,9.766
43.945,20.996,22.949,35.645,-20.996
28.809,24.902,25.879,35.645,-26.855
11.23,29.297,27.344,31.25,38.574
28.809,29.297,27.832,32.715,-4.883
55.176,30.273,28.32,33.203,-72.266
40.527,30.762,30.273,31.25,-27.344
19.531,29.297,26.855,29.785,7.324
