TP9,AF7,AF8,TP10,Right AUX
43.457,39.551,48.828,19.043,75.684
57.617,40.039,48.34,23.438,44.434
41.504,41.016,47.852,25.879,14.648
26.855,39.551,49.316,24.414,49.316
20.02,38.086,49.805,22.461,18.066
49.316,39.062,43.457,29.297,-44.434
59.082,43.457,37.109,29.785,-57.129
39.551,44.922,36.133,29.297,-65.918
19.043,32.715,35.156,29.297,-16.602
4.395,25.391,35.645,27.344,11.23
36.133,31.738,38.086,33.691,82.031
57.129,35.645,38.086,38.086,67.871
41.016,40.527,42.48,32.227,-19.043
20.02,39.551,41.016,24.414,-18.066
8.789,40.039,37.598,21.973,0
40.527,46.387,39.062,30.762,5.371
58.105,44.434,35.645,32.227,-20.996
37.598,37.109,32.227,25.391,35.156
19.531,39.062,34.18,22.949,14.648
2.93,45.898,39.062,19.043,5.371
23.926,41.992,39.551,15.625,65.43
53.711,31.25,32.227,20.02,60.059
40.039,33.691,30.762,17.09,32.227
19.043,39.062,39.551,11.23,39.551
-0.977,33.691,35.645,4.395,59.082
11.23,30.273,32.227,3.418,21.484
46.875,31.738,39.062,17.09,-3.418
43.457,31.738,39.551,19.531,23.438
23.438,33.203,40.527,15.625,14.648
8.301,38.574,34.668,13.184,47.852
23.438,42.969,32.715,16.602,68.848
59.57,41.016,36.621,20.508,9.277
52.246,35.645,33.203,17.09,-12.207
34.18,35.156,34.668,20.02,39.551
19.531,35.645,35.156,21.484,100.586
22.461,36.621,34.18,23.926,44.434
59.082,36.133,30.273,34.668,25.391
58.105,32.715,27.832,36.133,33.203
37.109,35.156,27.832,27.344,44.922
20.02,36.621,23.438,24.414,31.25
17.09,34.668,23.438,20.02,-30.273
48.34,31.738,19.531,17.578,3.418
53.711,34.668,19.531,20.508,55.176
38.574,38.574,27.344,14.648,71.289
22.461,40.039,23.438,7.812,19.043
17.578,43.945,22.949,3.418,8.789
49.316,39.062,29.785,2.93,18.555
62.012,35.645,29.297,9.277,1.953
44.922,40.527,27.832,11.23,32.227
25.391,38.086,32.715,9.766,-2.93
18.066,36.621,40.527,12.695,-11.23
51.27,38.574,44.922,21.484,23.926
71.289,38.574,44.434,30.273,23.438
58.105,36.621,40.039,32.715,-18.555
35.645,28.809,36.133,24.902,-56.641
19.531,28.809,39.551,19.043,-41.016
45.898,33.691,43.945,22.461,19.043
71.289,33.691,39.062,28.809,27.832
53.223,34.18,45.898,25.391,-2.441
31.738,35.156,50.293,21.973,-15.625
17.09,35.645,46.387,23.438,19.043
36.621,33.691,47.852,25.391,40.039
65.918,33.691,41.504,28.809,41.504
57.129,33.203,39.062,25.879,56.641
39.551,32.715,39.062,23.926,-25.879
24.902,33.691,36.133,23.926,-4.883
48.34,33.203,39.062,25.879,61.035
81.055,33.691,40.039,28.809,66.406
67.871,32.227,43.457,25.879,32.227
45.41,34.18,49.316,22.461,51.758
20.996,33.203,42.969,14.648,50.781
25.391,27.344,39.062,8.789,-20.508
54.688,32.227,44.922,12.207,45.41
50.781,34.18,51.27,13.672,100.098
30.273,33.203,48.828,7.324,69.824
11.719,34.668,40.527,1.953,46.875
22.461,28.809,39.062,6.836,27.832
55.664,24.902,37.109,12.695,5.859
52.734,30.762,35.645,11.719,-3.906
37.109,39.062,37.598,16.602,19.531
20.02,42.969,37.109,14.16,46.875
23.438,38.574,39.551,9.277,-23.438
57.129,31.25,37.109,15.625,-47.363
56.641,26.855,33.203,18.555,-40.527
40.527,28.32,34.668,16.113,-22.949
19.043,31.738,33.691,14.648,21.973
15.137,32.715,35.645,16.113,15.625
55.176,34.668,38.574,20.508,20.508
64.453,39.062,40.039,25.391,45.41
42.48,40.527,41.504,28.809,-22.461
19.531,37.109,40.527,22.949,-8.301
12.207,39.062,40.039,15.137,33.691
44.922,41.504,45.898,18.555,36.133
53.711,41.016,51.27,19.043,54.199
33.203,43.945,48.828,13.184,26.367
17.578,40.039,43.945,10.254,15.137
3.906,36.133,44.922,7.812,29.785
32.715,41.016,41.504,10.254,-5.371
55.176,40.527,40.527,14.648,-41.504
38.574,41.504,45.41,14.16,-46.875
17.09,41.992,45.41,8.789,-60.059
2.441,39.062,41.504,4.883,-51.758
28.809,38.574,43.457,6.836,6.348
47.852,41.504,43.457,7.812,37.598
36.133,42.48,41.992,6.836,27.832
22.949,39.551,43.457,6.348,2.93
5.859,37.109,40.527,6.348,88.867
32.715,35.156,40.039,13.184,82.52
59.082,35.156,43.457,19.531,11.719
45.898,35.156,45.41,16.602,41.504
32.715,38.086,43.945,21.484,3.906
15.137,42.48,40.527,21.484,42.969
31.25,41.504,36.133,20.508,70.312
58.105,38.086,29.297,29.785,-14.16
45.41,32.715,29.297,27.344,-21.484
21.484,31.738,35.156,13.672,23.438
-2.93,34.668,36.133,4.395,72.754
11.719,39.062,33.203,-0.977,101.562
43.457,43.457,28.32,2.93,66.895
36.621,46.387,22.949,7.324,44.922
23.438,47.363,23.438,10.742,43.945
5.371,41.504,21.484,8.301,-3.906
12.695,35.645,20.996,8.301,1.953
53.711,39.551,24.414,17.09,32.715
49.316,40.527,25.391,15.137,8.789
30.762,39.062,28.32,12.207,-1.953
15.137,44.434,33.203,10.254,20.02
16.113,48.34,40.527,10.254,57.129
54.688,45.41,40.039,23.926,33.203
59.082,41.504,38.574,27.832,45.898
38.086,41.016,40.527,24.414,20.508
16.113,39.062,37.109,21.973,0.977
9.277,37.598,35.645,17.578,62.012
50.781,40.039,37.109,25.879,66.895
62.012,41.504,39.062,31.25,39.551
43.457,42.969,33.691,24.902,57.617
26.855,40.527,24.902,17.09,25.879
13.184,35.156,27.344,12.695,-2.441
43.457,32.715,28.809,18.066,11.23
61.523,31.25,23.926,20.996,-43.457
46.875,35.156,26.855,18.066,-0.977
24.902,34.18,24.902,16.113,88.379
12.207,30.273,20.508,14.16,68.848
36.621,30.273,22.461,13.184,0
53.223,30.762,30.762,14.16,-23.438
41.504,35.156,34.18,6.348,-2.93
23.926,35.156,24.902,1.953,-47.363
7.324,37.109,19.043,3.906,-63.965
30.762,47.852,23.926,5.859,0.488
54.688,54.199,29.785,12.207,24.902
39.062,53.711,29.785,11.719,-5.859
16.602,49.805,21.484,0,-12.207
-2.441,47.852,16.602,-7.324,41.992
17.578,46.875,26.367,0.488,59.082
42.48,44.922,32.227,6.348,72.754
30.762,41.504,28.32,5.371,35.156
12.207,40.527,28.32,2.93,8.301
-3.906,42.48,31.738,-2.441,-29.297
18.555,43.945,32.227,0,-10.254
45.898,43.945,28.809,4.395,27.832
35.645,43.945,26.367,3.418,24.902
28.32,42.969,27.832,8.301,19.531
8.789,41.992,31.738,7.812,4.883
7.324,42.969,35.156,0.977,31.738
41.504,39.551,39.551,3.906,10.742
45.41,41.016,47.852,10.254,28.32
33.691,45.41,44.434,13.672,28.809
13.184,46.387,42.48,12.207,39.062
15.137,49.316,44.922,5.371,54.688
47.363,45.898,42.48,3.418,14.16
45.898,41.016,44.434,7.324,28.809
32.227,42.48,43.945,12.207,20.996
15.625,39.551,39.062,10.742,-27.344
15.137,39.062,37.109,6.348,53.223
51.27,40.527,38.574,11.719,114.258
56.641,39.062,33.691,11.719,52.246
31.738,39.551,32.227,5.859,-8.301
5.859,38.574,29.297,6.348,-3.418
2.441,40.039,23.438,4.883,0.488
35.156,40.039,26.367,2.93,-6.348
41.992,36.621,32.227,5.371,73.242
24.414,38.086,33.691,4.395,63.477
3.906,39.062,32.715,3.418,-27.344
-1.465,39.551,35.645,8.301,-14.16
34.18,36.133,39.062,17.578,10.742
50.293,38.574,39.062,22.949,-14.16
31.25,44.922,39.551,23.926,-8.789
13.184,44.434,35.156,20.508,20.996
7.812,49.316,26.855,13.184,62.988
38.574,49.316,23.926,13.184,71.777
61.035,43.457,21.484,20.508,20.02
50.293,48.34,23.438,21.973,-9.766
32.715,48.34,30.762,23.926,-36.621
22.461,44.434,41.016,20.02,-2.441
50.293,48.828,47.363,22.461,-13.672
72.266,47.852,43.457,32.227,-10.254
58.105,44.434,41.504,28.809,28.32
36.133,42.969,41.992,22.461,43.945
20.508,41.504,41.992,19.043,57.617
39.062,42.48,44.434,13.672,52.734
59.082,38.086,44.434,14.16,20.02
43.457,35.156,39.062,11.719,18.066
24.414,39.062,38.574,8.789,62.012
7.812,34.668,36.621,13.184,55.176
21.484,27.832,38.574,12.207,16.113
52.734,28.32,39.062,15.137,10.742
48.34,31.25,39.551,23.438,6.836
23.438,35.156,42.48,18.066,32.715
2.441,35.156,40.527,10.254,73.73
16.602,35.156,38.574,13.184,92.773
50.293,33.203,37.598,18.066,42.48
48.34,34.18,44.922,18.555,38.574
28.809,36.133,44.434,13.184,66.895
3.418,30.762,33.691,8.301,23.926
7.324,29.785,36.621,9.277,-25.879
44.922,37.109,42.48,17.578,8.789
50.293,46.387,43.457,23.438,36.621
35.156,52.246,43.457,17.578,36.133
17.09,50.781,37.109,11.23,59.082
17.09,50.781,37.109,9.766,47.852
50.293,49.805,42.969,12.207,-0.977
54.688,43.945,38.086,12.695,2.93
33.203,38.574,34.18,9.766,22.461
13.672,35.156,34.18,4.883,20.508
9.277,33.691,32.715,3.418,13.184
41.992,30.762,34.18,11.719,18.066
51.758,29.785,32.715,17.578,14.648
34.18,32.715,35.645,12.695,-0.977
18.555,33.203,36.621,9.277,50.781
13.184,32.715,35.645,7.324,66.406
42.48,30.762,38.086,11.719,22.949
54.199,27.832,36.621,14.648,-17.09
34.668,28.809,31.25,8.301,-26.855
21.973,27.344,26.367,9.277,-45.41
15.137,27.344,33.203,12.695,-62.012
37.109,31.25,37.598,16.113,-4.395
55.664,32.227,30.762,18.555,5.859
42.969,34.668,28.809,17.578,-41.992
23.438,37.109,37.109,13.184,5.859
7.324,35.156,40.039,6.348,-11.23
35.645,36.621,41.016,10.742,-44.434
62.5,36.621,43.945,19.531,19.043
48.34,29.297,44.434,19.531,-6.836
28.809,27.344,39.062,15.625,3.906
11.719,27.832,33.203,10.254,33.691
28.32,26.855,28.809,12.695,-27.344
56.152,27.832,25.391,13.184,2.441
48.34,34.18,33.203,13.184,21.973
34.18,35.645,38.086,16.113,42.48
20.02,34.18,35.645,17.09,65.918
31.738,35.645,40.527,22.461,38.574
64.453,32.715,35.645,28.809,69.824
55.176,30.273,32.227,24.902,81.543
26.855,31.25,36.133,16.113,82.52
7.812,32.227,32.227,11.23,65.43
19.043,30.273,41.504,15.137,54.199
53.223,29.297,49.316,23.438,80.078
49.316,25.391,47.852,20.996,66.895
26.855,23.438,52.246,14.648,22.949
6.836,23.438,51.758,8.789,-17.09
7.812,22.461,50.781,0.977,29.297
42.969,22.949,52.246,7.324,38.574
49.316,24.414,50.781,15.625,-21.973
25.879,34.18,51.27,10.742,17.578
3.418,34.18,49.316,7.812,-20.508
6.348,33.203,51.27,11.719,-24.902
42.969,36.621,50.293,16.113,92.773
49.805,37.598,43.945,19.531,62.988
33.691,38.086,42.969,20.02,12.695
20.02,36.621,43.945,16.113,48.34
13.672,33.203,49.316,11.719,43.457
43.945,33.203,47.852,14.16,-28.809
48.828,30.273,38.574,9.277,-28.32
22.949,27.344,34.668,-1.465,21.484
6.348,30.762,35.156,0,-24.902
1.465,33.203,37.598,3.906,21.973
35.156,33.691,39.551,9.766,21.973
55.664,30.762,40.039,15.137,0.977
35.645,29.297,33.203,11.719,30.273
10.742,25.879,30.273,5.371,38.574
0.977,22.949,33.203,7.324,0.488
29.297,25.879,41.992,12.207,6.348
45.898,25.391,36.621,11.23,59.57
28.809,19.531,32.715,6.348,-33.203
11.719,19.043,36.621,3.418,-42.969
2.93,26.367,33.691,9.277,12.695
23.926,32.715,38.086,10.254,4.395
46.875,34.668,41.992,10.742,55.176
34.668,33.691,42.969,8.301,-12.207
19.531,36.133,41.016,1.465,4.395
6.348,37.598,36.621,-2.93,36.133
21.973,37.109,35.645,-2.441,13.672
44.434,35.645,37.109,5.859,52.734
30.273,35.156,35.156,6.836,20.508
10.254,36.621,30.762,-1.465,41.016
-6.836,38.086,30.762,-4.883,8.301
10.742,40.039,35.156,3.906,-4.883
46.387,39.062,32.715,10.254,33.203
39.062,34.18,37.109,15.625,41.016
19.531,33.691,42.48,14.16,82.52
-0.488,34.668,34.18,9.766,62.5
6.836,37.598,31.738,8.301,26.367
43.457,40.039,27.832,6.836,-13.672
38.086,40.039,31.738,9.766,-17.09
16.602,39.551,42.969,9.766,40.527
-0.977,38.086,37.598,7.324,27.832
4.883,39.062,36.133,6.836,25.391
43.457,37.109,40.039,8.789,19.043
48.34,37.109,42.969,10.742,-50.293
30.273,39.062,44.434,4.395,1.465
7.324,40.039,38.086,-2.441,10.742
0.488,37.598,39.062,-4.395,-50.293
35.645,37.109,43.945,2.93,-35.156
49.805,36.621,41.992,9.277,-18.555
32.227,34.668,47.363,2.441,3.418
15.625,39.062,50.293,0,55.176
15.137,44.434,43.945,5.859,-3.418
47.852,46.387,45.898,12.695,-16.113
62.5,41.016,42.48,16.602,15.625
46.875,37.109,40.527,17.578,29.785
22.461,36.133,37.109,13.184,27.344
8.789,29.297,29.785,9.766,31.25
39.062,31.738,33.691,16.113,66.406
50.293,34.668,33.691,22.949,43.457
32.227,31.738,34.18,25.391,27.832
16.113,28.809,32.227,22.461,32.715
5.371,29.785,28.809,20.508,-4.883
30.762,31.738,32.227,21.973,4.883
54.199,28.32,35.156,23.438,2.441
43.457,25.879,36.133,21.973,-23.438
24.902,27.832,38.086,20.02,0.488
11.23,29.297,35.645,19.043,61.523
35.645,34.668,36.133,20.02,19.531
63.965,36.133,38.574,22.949,-10.254
55.664,38.086,44.434,27.832,15.625
36.133,39.062,50.781,27.832,22.949
11.23,35.156,41.504,17.09,36.621
24.902,36.621,35.156,15.137,7.324
57.129,37.598,38.086,22.949,0.488
47.852,41.016,37.109,20.508,-11.23
28.809,41.992,34.18,16.113,-6.348
7.324,40.527,31.25,15.625,-8.301
16.113,40.039,38.086,14.16,-3.906
52.246,41.016,49.316,20.508,35.645
49.316,41.992,50.781,22.461,104.98
28.809,43.945,50.781,21.484,71.289
7.812,44.434,46.387,21.484,60.059
17.09,44.922,36.133,18.555,46.387
51.27,42.48,31.25,24.902,16.602
43.457,38.574,31.738,20.996,68.359
23.438,37.109,34.18,13.184,52.246
6.836,34.668,33.691,18.066,23.438
11.719,34.668,30.762,20.02,43.945
46.875,31.25,28.32,22.461,-8.301
52.246,29.297,32.227,26.367,-34.18
38.086,32.715,34.668,27.344,23.438
19.043,33.691,29.785,23.438,23.438
17.09,36.621,27.832,19.043,8.789
52.246,35.645,30.762,23.438,-0.488
57.129,28.32,35.645,19.531,6.836
33.691,26.367,37.109,9.277,27.832
15.137,27.344,33.203,8.301,27.832
8.301,25.391,33.203,5.371,40.039
40.527,30.762,40.039,2.441,59.082
56.152,32.227,40.527,8.789,50.293
35.645,29.297,38.574,13.184,-10.254
13.184,35.645,40.527,5.371,23.438
4.883,37.598,41.016,0.977,13.184
38.086,35.645,49.805,9.277,-9.766
58.594,34.668,55.664,19.043,-14.648
39.551,35.156,56.641,16.602,17.09
20.02,41.504,50.293,11.719,88.867
11.719,49.316,43.945,13.184,44.434
40.527,58.594,46.875,16.602,-32.715
58.594,61.035,45.898,13.672,27.832
35.156,60.059,42.48,1.465,57.129
18.066,59.57,42.48,-1.465,45.898
6.348,57.129,45.898,1.465,95.215
31.738,58.105,46.387,9.277,54.199
56.152,56.641,41.504,9.766,6.348
35.156,54.199,38.086,-0.977,43.945
20.02,54.688,41.016,-0.488,63.477
3.418,53.711,37.598,-1.465,60.547
17.09,51.27,33.203,-5.371,26.855
55.664,51.27,33.203,4.883,19.043
48.34,54.688,30.273,7.812,57.129
22.461,58.594,33.203,-0.977,-4.883
-0.977,60.059,34.668,-6.836,-22.461
11.23,57.617,39.062,-2.93,32.715
38.086,51.27,42.969,0.977,-35.156
27.832,52.734,47.363,0.977,-43.945
15.625,56.152,54.199,0.488,62.5
-2.93,49.316,51.27,5.371,36.133
1.953,47.363,49.805,7.812,-6.348
37.109,52.246,46.875,9.277,-45.41
40.039,59.57,43.457,11.23,6.348
19.531,58.594,44.434,4.883,47.852
-1.465,59.57,42.969,2.93,-8.789
4.883,62.5,48.34,8.301,9.766
37.598,55.664,53.223,13.672,-21.973
42.969,54.688,46.387,20.508,-5.859
29.785,54.199,38.574,19.043,57.617
5.371,49.316,32.227,8.301,-5.859
-5.859,48.828,28.809,-1.953,-47.363
27.832,48.828,30.762,3.418,13.672
51.27,51.758,27.832,18.066,46.387
32.227,57.129,22.461,6.836,72.266
1.953,54.199,23.438,-5.859,100.098
-2.441,44.922,26.367,-2.441,22.461
33.203,41.016,29.785,8.301,-12.695
44.922,40.527,22.949,16.113,52.246
21.484,38.574,20.508,7.324,71.777
4.395,40.039,22.949,0,30.762
2.93,39.551,18.555,0.977,-26.855
27.832,38.574,26.855,0.977,-73.73
35.645,35.645,28.809,-4.395,-73.73
18.555,37.109,28.32,-1.953,12.207
5.371,40.527,37.109,6.348,31.738
1.465,41.992,33.691,10.254,49.316
33.691,46.387,28.809,13.672,47.363
53.711,44.922,30.762,18.066,44.434
36.133,42.969,28.809,13.184,62.988
20.996,43.457,26.855,9.766,40.527
-0.488,40.039,25.879,9.277,14.16
23.926,34.18,29.297,16.602,-20.996
62.988,36.133,31.738,33.203,20.996
52.734,42.969,28.32,38.574,59.57
27.344,41.992,24.414,26.855,-17.578
1.953,41.992,24.414,17.09,13.672
16.113,36.621,30.762,18.555,21.484
46.387,32.227,33.203,21.484,-61.035
39.062,41.504,29.297,12.695,-44.922
30.273,49.805,31.25,7.812,-26.367
16.113,52.246,34.668,13.184,-24.414
18.555,49.805,37.598,13.184,27.832
54.688,44.922,41.016,19.531,20.996
55.176,43.945,39.062,19.531,-17.09
29.297,41.504,39.551,6.836,6.836
-2.441,42.48,39.551,-5.371,-2.441
-0.488,47.852,32.227,-10.254,12.695
38.086,44.434,29.297,-2.441,46.387
39.551,40.039,28.809,0.488,22.461
20.02,41.504,35.156,-2.93,-3.906
-0.977,42.969,33.691,2.441,7.812
4.395,44.922,26.855,4.395,-2.441
35.156,42.969,24.902,4.395,9.766
34.668,41.016,21.484,6.836,58.594
20.508,46.875,18.555,6.836,62.988
3.906,45.41,15.137,5.371,47.363
6.348,38.086,16.602,7.324,58.594
41.016,32.715,24.902,14.648,28.809
45.898,28.32,25.879,14.648,-28.809
23.926,32.715,20.02,0.977,17.09
6.836,38.086,16.113,-4.883,39.062
2.93,40.039,12.695,-2.93,19.043
32.715,42.969,14.648,0.977,1.953
51.27,47.852,14.648,11.719,-45.41
28.32,44.434,16.602,2.441,-62.5
2.441,35.156,21.973,-2.93,-1.953
-1.465,36.133,21.973,9.277,29.297
27.344,45.898,20.508,5.859,35.645
47.852,47.852,5.371,1.953,11.23
31.738,45.41,2.441,-0.977,-2.93
8.789,46.875,11.23,-8.789,83.984
4.883,48.828,7.324,-6.836,29.297
22.461,48.34,14.16,-4.883,-8.301
41.504,43.945,26.855,1.465,14.648
37.109,47.852,32.715,3.906,50.781
14.16,53.711,29.297,-8.301,57.617
-7.324,51.758,26.855,-15.625,55.176
13.184,48.34,31.738,-11.23,102.051
45.898,44.434,34.668,-1.953,82.031
27.344,40.527,32.227,-8.301,21.484
6.836,42.48,24.902,-17.09,-3.906
4.883,48.828,23.926,-3.906,30.762
25.879,52.246,26.855,5.859,34.668
53.223,49.316,24.902,4.883,-24.414
41.504,42.48,29.297,3.906,-2.441
24.902,36.621,40.039,7.812,17.09
8.301,41.016,33.691,3.906,0.977
7.324,44.922,27.832,-2.441,17.578
36.133,46.875,29.297,4.395,-15.137
35.645,52.734,29.785,11.719,-19.043
10.742,50.293,35.156,6.348,27.344
-11.719,45.41,34.668,-2.93,-10.742
-5.371,48.828,33.691,-8.789,-48.828
32.715,58.105,34.18,-3.906,-36.133
36.133,60.059,37.598,3.906,-41.992
8.789,53.711,39.551,-2.441,17.578
-7.812,51.758,39.551,-7.324,76.172
0,54.199,39.551,-2.93,61.523
30.762,53.223,42.48,3.418,23.438
37.598,49.316,44.434,6.836,102.539
23.926,55.664,44.922,2.93,154.785
5.371,57.129,46.387,4.395,37.109
-0.977,55.664,41.016,4.395,-8.301
32.227,56.641,36.133,10.742,-19.531
44.434,50.781,32.715,20.02,0
19.531,48.34,38.574,9.277,20.02
-5.859,47.363,44.434,-0.977,31.738
-5.859,44.434,41.504,2.93,56.641
30.762,40.039,41.992,15.625,67.383
43.945,37.109,37.598,22.461,66.895
20.02,39.062,31.738,16.113,-24.902
6.348,44.434,28.809,8.301,-46.875
-0.977,46.387,25.879,0.488,-17.09
22.461,42.969,31.738,3.418,5.859
38.574,39.062,34.18,6.348,50.293
21.973,39.062,32.227,4.883,17.578
5.371,40.527,33.203,3.418,27.832
-13.672,40.527,33.203,-10.254,40.527
6.348,45.898,34.18,-18.555,-55.176
30.273,45.898,28.32,-19.531,-28.809
19.043,42.969,24.902,-18.555,30.273
0.488,43.457,33.203,-17.578,-22.949
-12.695,40.527,33.691,-18.555,-27.832
15.625,43.945,33.203,-16.113,15.137
47.852,48.34,33.203,-5.371,39.551
34.668,48.828,31.738,0.488,-21.973
16.602,46.875,32.715,3.906,-69.336
3.906,42.969,31.738,6.836,4.395
21.484,45.41,33.203,7.812,13.184
50.781,43.945,36.133,11.23,-54.199
36.133,39.062,37.109,4.883,-17.578
16.113,42.48,39.062,-4.883,4.395
-0.488,39.062,39.062,-2.441,-44.922
12.207,35.156,41.992,7.324,3.906
53.223,38.086,41.992,13.672,101.074
53.711,40.527,37.598,12.207,89.844
32.715,44.434,38.086,10.742,59.082
14.16,50.293,35.156,11.719,52.734
17.09,45.898,36.133,10.254,92.773
42.969,37.109,38.574,12.695,92.773
43.945,36.621,38.574,16.113,3.418
23.926,37.598,41.504,13.184,15.137
-0.977,34.668,39.551,9.766,61.035
1.953,26.367,34.18,8.789,44.922
37.598,24.902,33.203,15.137,73.73
45.41,26.855,33.691,23.926,72.754
25.391,26.855,36.133,21.484,20.508
4.395,24.902,34.18,14.16,5.859
0.977,23.438,35.156,14.648,5.859
32.227,23.926,36.621,17.578,21.484
47.852,23.438,39.062,22.461,11.719
30.762,24.414,41.016,18.066,3.418
12.207,31.25,34.668,4.395,5.859
5.371,38.086,31.738,0.977,43.945
30.273,38.086,37.109,5.859,92.773
38.086,36.621,34.18,5.859,37.598
16.602,39.551,34.668,4.395,-12.695
-8.789,36.621,37.598,-5.859,41.016
-21.484,31.738,39.551,-3.906,39.551
10.254,32.227,51.27,11.719,-61.523
32.715,36.621,51.758,15.137,-41.504
14.648,39.551,41.504,6.836,0.977
-13.184,41.504,40.039,-1.953,20.508
-27.344,36.133,39.551,0,73.73
-0.977,31.738,37.598,9.766,64.941
29.785,38.086,40.527,21.973,41.504
24.414,45.41,44.922,19.043,54.199
1.953,45.41,46.387,9.766,-14.16
-21.484,44.922,46.875,6.348,-5.859
0.488,44.922,48.828,10.254,52.734
35.645,41.016,46.387,20.02,35.645
26.367,34.668,43.945,19.531,11.719
10.742,31.25,42.969,14.16,-30.273
-4.395,35.156,36.133,12.207,-43.945
1.953,35.645,32.715,4.883,-5.859
26.367,31.738,35.645,2.93,15.137
12.207,29.785,40.527,0.488,26.367
-12.695,30.762,41.016,-3.906,6.348
-28.809,31.25,37.109,-3.906,-5.371
-17.09,32.715,37.598,-3.906,15.625
15.137,37.109,37.109,-3.418,20.996
13.672,35.156,28.809,-6.348,48.828
-6.836,34.668,25.879,-10.254,44.434
-30.273,34.668,29.785,-10.742,-45.898
-25.391,32.227,34.18,-8.789,-20.02
8.789,27.832,32.227,-4.395,50.293
10.742,23.926,29.785,-2.93,102.539
-2.441,22.461,33.203,-0.977,14.648
-17.09,21.973,34.18,0.488,-28.32
-20.02,20.508,41.016,0.488,4.395
16.602,17.09,44.434,4.883,-8.789
34.668,22.461,38.574,12.695,4.883
23.438,27.832,40.527,15.625,24.902
0,23.438,42.48,11.23,27.832
-8.301,19.531,38.086,8.301,43.945
29.785,18.555,37.109,15.625,4.395
44.434,18.555,35.156,24.414,-40.527
23.438,18.066,32.227,21.973,-19.531
6.836,20.508,30.762,18.555,0.977
-2.441,20.02,30.273,22.949,15.625
16.602,17.09,32.227,17.578,17.578
29.785,16.113,33.203,13.184,23.438
19.043,21.973,33.691,20.996,37.109
2.93,29.297,38.086,21.973,46.875
-8.789,30.273,37.109,18.555,32.715
13.672,31.738,37.598,17.09,47.852
38.086,28.809,39.062,21.484,37.598
27.344,25.391,40.527,18.555,56.641
1.953,22.949,44.434,8.789,71.777
-16.602,19.531,45.41,7.812,15.137
10.254,20.996,45.898,9.277,43.457
39.062,27.344,39.062,7.324,44.434
25.391,34.18,36.133,3.418,19.531
-0.977,36.133,45.898,-5.371,49.316
-18.066,35.645,46.387,-7.812,24.902
4.395,30.273,41.016,0,21.973
35.645,33.203,36.621,5.371,37.109
30.762,36.133,36.133,9.277,34.18
9.766,29.297,41.504,3.418,54.199
-16.602,26.855,41.992,-3.906,38.086
-0.488,28.809,38.574,0,5.371
39.062,31.25,34.18,11.719,-26.367
29.785,28.809,36.621,10.742,-6.836
12.695,31.25,40.039,6.348,23.926
-5.859,36.621,36.621,7.812,-33.691
-3.418,37.109,36.133,0,-14.16
31.738,36.133,38.086,0.488,16.602
31.25,32.227,28.32,2.441,18.066
6.348,27.832,20.508,-4.395,-51.758
-20.02,28.32,26.855,-12.207,-81.055
-15.137,27.832,29.297,-12.695,-21.484
28.809,25.879,27.832,3.906,3.906
32.227,31.25,24.902,12.207,35.645
13.184,37.598,24.902,5.859,28.32
-1.465,36.133,29.785,4.883,36.621
-0.488,36.133,31.25,9.277,25.391
32.227,34.668,31.25,12.695,26.855
41.016,32.715,29.785,20.02,15.137
21.484,36.621,36.621,19.531,-0.977
-0.977,42.969,39.551,10.742,38.086
-7.812,41.992,24.902,7.812,-13.184
26.367,42.48,19.531,13.672,-85.938
38.086,45.898,27.344,15.625,-32.715
17.09,44.434,31.738,12.207,25.879
0,41.016,30.273,10.742,62.988
-7.324,34.668,32.715,11.23,50.293
26.367,34.668,35.645,15.625,22.461
46.387,37.598,33.203,18.555,38.086
28.32,33.691,31.738,15.137,59.57
11.719,35.156,31.738,12.207,53.711
-5.859,37.598,31.738,11.23,10.742
16.113,38.086,33.691,10.254,18.555
37.109,38.086,31.738,14.16,50.293
27.832,34.668,33.203,17.578,63.477
12.207,36.133,39.551,12.207,59.082
-11.23,37.109,37.109,6.836,4.883
11.719,36.621,35.645,12.207,-1.953
47.852,35.645,41.504,19.531,32.227
34.668,35.645,39.551,15.137,26.367
10.742,34.668,37.598,2.93,35.645
-9.277,29.785,35.156,2.441,64.941
12.207,31.25,34.668,9.277,24.902
48.828,33.203,35.156,15.137,-5.859
39.551,25.879,30.762,16.113,64.453
19.043,22.461,32.715,11.719,58.105
-1.465,20.02,35.156,9.277,58.105
7.812,16.113,35.645,9.277,55.664
39.551,17.578,39.062,12.695,33.691
33.203,17.09,41.016,15.137,70.801
12.207,16.602,41.504,14.648,30.762
-13.184,17.578,40.039,8.301,14.16
-8.301,21.484,40.039,8.301,27.832
28.809,25.391,41.504,13.672,28.809
27.344,20.996,42.48,10.254,45.41
13.184,18.555,41.504,11.23,-18.066
-2.93,19.531,38.574,12.207,8.789
-8.301,20.508,41.016,5.371,15.137
25.391,24.902,48.828,10.254,-94.238
37.598,25.391,42.969,18.066,-57.617
25.391,30.273,41.016,19.531,48.34
10.742,42.48,46.875,19.531,61.523
5.371,46.875,43.457,17.09,17.09
32.227,46.387,43.945,11.719,17.09
43.945,45.41,41.016,15.625,62.012
36.133,45.898,36.133,24.902,5.859
18.555,48.828,40.039,20.508,2.93
9.277,53.711,42.969,14.16,27.344
37.598,53.711,49.316,14.16,40.527
41.992,47.363,50.293,16.602,94.727
22.461,43.945,47.852,11.719,70.801
2.441,45.898,50.781,4.395,11.23
-10.742,43.945,44.922,-1.465,0.977
17.578,43.457,41.504,-0.488,36.621
38.086,48.34,41.016,7.324,15.137
23.926,51.758,41.504,11.719,-0.488
9.277,53.223,45.898,14.648,55.176
-3.906,51.27,47.852,17.578,23.926
15.137,48.34,57.129,20.02,-20.02
41.016,46.387,62.988,26.367,11.719
35.156,42.48,54.199,27.344,20.02
13.672,42.969,55.664,20.996,79.59
-5.371,47.363,55.176,16.602,41.992
17.578,48.828,44.434,15.137,-24.902
41.504,48.828,41.504,13.672,36.621
27.832,49.805,47.363,12.695,65.918
10.742,48.34,49.316,13.184,-16.113
-3.906,43.457,46.387,10.254,36.621
12.695,39.551,51.27,11.719,97.656
38.574,37.109,51.758,14.648,78.125
28.809,34.668,53.223,12.695,51.758
17.578,34.18,58.105,17.09,-12.695
-0.977,38.574,54.688,20.02,1.465
3.418,37.598,44.922,11.719,39.062
32.227,35.645,45.898,6.836,11.23
26.855,38.086,51.27,7.324,-21.973
6.836,39.062,51.758,0,-5.859
-13.672,38.574,46.875,0,30.273
-3.418,40.039,47.363,8.301,17.09
27.832,44.922,54.199,7.324,25.391
23.926,44.922,49.316,4.883,14.16
11.719,45.41,49.316,7.812,2.93
-7.324,51.27,50.781,0.488,29.785
-4.883,55.176,42.48,-2.93,35.645
33.691,56.152,46.387,4.883,24.414
42.48,56.641,44.922,11.23,-35.156
26.855,58.105,44.434,11.23,4.883
10.742,56.641,49.805,9.277,36.621
5.859,51.27,44.922,8.789,-21.484
31.738,48.34,47.852,7.324,11.719
45.898,44.922,49.805,12.695,41.992
29.297,41.992,50.293,12.207,32.227
9.277,42.969,44.922,11.719,48.34
4.883,47.852,37.109,10.742,-2.93
24.902,46.387,41.992,0.977,-44.922
30.762,39.062,42.48,1.953,12.207
13.672,33.203,40.039,2.93,45.898
-8.789,32.715,42.969,-5.371,62.012
-21.973,31.25,41.016,-7.324,29.785
5.859,27.832,35.645,-2.93,29.785
21.973,26.367,37.109,0.488,41.504
6.348,26.367,41.016,-3.906,36.621
-8.789,28.809,36.133,-9.766,-0.977
-19.043,32.227,27.832,-7.812,-35.645
9.766,35.156,27.344,-4.395,35.645
28.32,32.715,28.32,-4.883,81.055
12.207,28.809,27.832,-4.883,14.16
0.977,32.715,30.273,-4.883,-2.441
-15.137,31.738,27.344,-2.93,10.742
2.93,28.809,27.344,1.953,26.367
30.273,27.832,33.203,9.277,56.641
23.926,27.832,38.574,13.672,31.738
13.672,29.785,40.527,14.16,17.578
-3.418,25.391,41.504,16.602,10.254
9.766,24.414,42.969,16.113,48.34
41.992,26.855,47.363,16.113,4.883
26.855,21.484,49.316,11.23,-38.086
-2.93,16.113,43.945,7.324,7.324
-23.438,13.184,38.574,3.906,29.297
-10.742,14.16,34.18,0.488,51.27
20.508,17.578,31.25,8.301,4.883
16.602,14.16,26.855,8.789,-30.273
-5.371,8.789,23.926,0,-26.855
-28.809,10.254,30.762,-0.977,-9.766
-22.949,11.23,36.133,1.953,0.488
12.207,9.766,30.273,5.859,0
13.184,7.324,25.879,6.836,1.953
-2.441,9.766,30.762,2.93,-17.578
-14.16,16.602,29.785,5.371,9.277
-9.766,17.578,30.273,6.836,38.086
27.832,18.555,41.992,13.672,0
35.156,19.043,42.48,19.043,26.367
17.09,20.508,41.504,15.137,92.285
0.488,25.879,43.945,6.836,70.312
-3.418,27.832,43.945,7.324,9.766
30.762,27.344,50.293,12.695,26.367
48.34,27.344,44.922,14.648,16.602
36.133,37.109,40.039,10.742,41.016
12.207,45.41,43.457,4.395,34.668
1.953,43.945,51.27,1.953,20.02
36.621,36.133,55.664,-0.488,11.719
45.898,28.809,50.293,0,-17.578
28.32,27.344,46.875,1.953,-3.906
16.113,30.273,47.363,0,25.879
7.812,33.203,44.434,0.488,17.578
31.738,32.227,43.945,2.93,17.09
48.34,27.344,46.875,2.93,48.34
37.598,25.879,49.316,5.859,17.09
21.973,25.879,55.176,7.812,36.133
11.719,27.344,51.758,6.836,42.969
35.156,34.668,49.805,7.324,-11.719
50.781,36.621,53.711,5.859,32.715
32.715,35.156,50.293,5.859,18.066
17.09,32.227,41.016,6.836,-38.086
2.93,30.762,30.762,6.348,59.082
22.461,29.785,30.762,6.836,85.449
52.734,33.203,32.715,9.766,38.574
40.039,36.133,28.809,11.23,36.133
27.344,32.715,29.297,14.648,9.277
13.184,31.738,32.715,16.113,36.133
22.461,29.785,35.156,13.184,58.594
49.316,26.367,41.504,11.719,25.879
42.969,26.855,45.41,15.625,29.297
22.949,30.762,45.41,13.672,31.738
-5.371,31.738,39.551,3.418,62.012
-5.859,23.438,34.668,-1.953,66.406
28.809,26.367,35.645,3.418,38.086
36.621,32.715,30.762,12.207,39.062
22.461,35.156,25.879,11.23,58.105
1.465,37.109,23.926,6.836,39.062
3.418,37.598,25.879,9.277,-42.48
38.574,43.457,27.344,11.719,-58.594
46.387,46.387,24.414,16.602,-17.578
26.367,47.363,28.809,16.602,70.801
1.465,45.898,30.273,7.812,74.707
-3.906,41.504,30.273,0.977,32.715
30.273,41.504,32.227,5.371,35.156
42.969,39.551,26.855,14.16,-27.344
25.879,35.156,27.832,14.648,-35.645
2.441,36.621,30.762,7.812,12.695
-1.953,41.016,26.367,5.859,28.32
36.133,39.551,32.715,11.23,33.203
51.27,37.109,33.691,17.578,52.734
34.668,39.551,28.809,14.16,68.359
14.16,41.992,33.691,3.906,22.461
2.93,41.504,34.18,-2.93,-7.324
35.645,39.551,31.738,0.488,39.062
58.594,36.621,30.273,8.301,43.945
48.828,39.062,30.273,14.16,55.664
33.691,37.598,27.344,14.16,34.668
18.555,30.273,22.461,6.348,-34.18
40.527,28.809,24.902,4.883,-5.859
61.035,28.809,28.32,9.766,11.719
48.828,28.32,26.367,11.23,6.348
27.832,30.762,25.879,3.906,57.129
2.93,30.762,25.391,-0.488,12.695
23.438,30.273,27.344,3.418,-23.438
48.34,33.691,32.227,4.395,27.344
38.086,34.18,34.18,5.859,26.367
26.367,32.715,39.062,6.836,-33.691
10.742,32.715,38.086,4.395,-41.992
24.902,31.25,33.691,3.418,-14.648
52.734,30.762,36.621,10.742,48.34
48.34,29.297,39.062,19.043,18.555
31.738,31.25,38.086,14.648,-38.574
11.719,34.668,35.645,11.23,11.719
23.438,31.25,35.156,14.648,32.715
51.758,29.785,35.156,15.625,41.504
46.875,36.133,30.273,14.16,31.738
30.273,41.016,27.344,10.254,-40.039
9.766,40.527,22.461,1.465,-59.082
14.648,42.969,24.414,-0.488,17.09
54.688,45.41,27.832,9.766,73.73
55.176,41.504,21.973,21.484,46.875
36.133,34.668,25.391,21.973,16.602
19.531,35.645,33.691,15.625,-13.672
13.184,31.738,33.203,9.277,20.02
42.48,27.832,31.25,10.254,68.359
45.898,31.25,33.203,17.09,56.641
30.273,30.762,38.086,14.648,36.621
16.602,29.297,35.156,11.23,14.648
8.301,30.762,31.738,11.719,63.965
41.016,28.32,31.738,14.648,52.734
54.199,20.508,36.133,20.508,26.855
40.039,18.555,47.363,25.879,48.34
25.391,23.438,45.898,26.855,45.41
11.719,29.297,41.016,19.531,28.32
38.574,31.738,41.992,15.625,-19.531
52.246,31.738,36.621,20.508,-51.758
33.203,28.32,32.227,16.602,-25.391
12.207,27.832,31.738,5.859,25.879
-3.906,27.832,30.762,1.953,6.348
22.461,25.879,30.762,4.883,-8.301
45.41,27.832,31.738,16.602,21.484
32.715,27.832,28.32,17.578,8.301
12.695,29.785,28.809,8.789,-27.344
-1.465,30.273,30.762,8.301,-24.902
24.414,26.367,29.297,12.207,22.461
45.898,24.414,30.762,11.23,23.438
34.18,30.762,30.762,5.859,47.852
24.414,34.18,31.738,5.859,47.363
5.371,31.25,30.273,1.953,-10.742
22.461,33.691,31.738,-0.977,-10.254
49.805,36.133,35.645,1.953,-3.418
37.109,30.762,33.691,3.906,-5.371
19.531,28.809,37.598,0.977,34.18
-0.977,30.273,38.086,-5.859,87.402
12.695,29.785,35.156,-4.395,55.176
41.992,29.297,37.598,-2.441,59.082
33.203,26.855,37.598,-3.418,64.453
19.043,24.902,35.156,-6.348,14.648
8.789,26.367,32.715,-8.301,-28.809
20.508,27.832,32.227,-2.93,-38.086
45.898,28.809,32.715,-1.465,25.879
41.016,27.344,28.32,-3.418,40.039
26.367,31.25,27.344,-2.441,60.059
6.836,38.574,33.691,-1.953,82.52
6.348,37.109,37.598,0.977,81.543
39.062,38.086,36.133,5.371,64.941
38.574,36.621,29.297,6.836,0
16.602,33.691,30.273,6.348,20.508
3.418,33.203,32.715,9.766,65.918
2.93,32.715,29.297,7.324,16.602
32.715,34.18,29.297,4.395,3.418
41.992,36.621,24.414,9.277,37.109
23.438,35.645,20.508,8.301,98.145
1.465,37.109,20.996,2.441,82.52
-1.953,39.062,18.555,5.371,46.387
29.785,37.598,17.578,10.742,-3.906
33.691,33.203,22.949,13.672,-54.199
18.066,29.785,29.297,12.207,-66.406
5.371,30.762,29.785,10.742,-65.918
1.465,31.25,31.25,10.254,-46.875
32.227,31.25,34.668,11.23,-16.602
43.457,32.715,32.715,15.137,-37.598
28.32,28.32,25.391,13.184,-50.293
8.789,29.297,29.297,9.277,-40.527
-5.371,36.621,34.18,4.395,4.883
20.02,40.039,27.832,0,58.594
35.156,43.457,27.344,0.977,1.465
23.438,47.363,32.227,-0.977,19.531
6.348,41.992,32.715,-4.883,64.453
-14.648,37.598,27.832,-8.301,45.41
4.883,39.062,32.715,-6.348,4.883
28.809,35.645,38.574,3.906,2.93
24.414,34.668,32.715,11.719,45.898
3.906,34.18,25.391,3.418,-29.785
-21.484,33.203,24.902,-3.906,-20.02
0.488,29.785,25.391,-4.395,83.984
28.809,29.785,21.484,1.465,118.652
16.602,32.227,23.438,5.859,73.73
0,33.203,26.367,3.906,5.859
-16.602,31.25,21.973,0.977,12.695
-3.418,23.926,29.297,-2.441,24.902
24.902,19.043,38.086,-1.953,40.039
23.926,14.648,32.715,2.441,54.688
16.602,15.137,23.926,5.859,24.414
-4.395,19.043,22.949,1.465,10.254
1.465,22.949,30.762,0.977,20.996
36.621,22.461,33.203,9.277,46.387
35.156,17.09,27.832,11.23,60.059
22.461,19.531,30.273,10.254,71.289
5.371,23.926,32.715,10.742,8.789
12.207,27.832,35.156,14.648,11.719
47.852,26.855,38.086,23.926,11.23
44.922,21.973,33.203,26.367,26.855
23.438,22.949,27.832,19.531,18.555
6.836,22.949,33.691,17.578,-30.273
7.324,20.996,42.969,14.648,16.602
34.668,20.508,49.805,11.719,-2.441
38.574,18.555,52.734,12.695,-21.973
20.02,14.16,52.246,7.812,-23.926
-0.488,14.16,53.223,-1.953,1.953
0.488,16.113,50.781,-2.441,13.672
30.273,15.625,46.875,-2.93,21.973
37.598,17.09,42.969,-1.465,65.918
29.785,19.531,36.133,3.418,51.27
16.602,23.926,38.574,-2.93,50.781
3.906,23.926,39.062,-9.277,16.113
29.785,22.949,33.691,-2.441,-15.625
50.781,28.32,31.738,5.859,29.785
40.527,27.832,32.227,8.789,38.574
20.996,27.832,38.086,9.277,13.672
6.348,29.785,43.945,7.812,28.32
32.715,30.273,45.898,11.23,62.5
52.246,35.156,45.41,17.578,88.867
39.551,35.156,41.016,18.555,64.941
20.02,33.203,41.504,11.23,37.598
0.488,36.621,39.062,3.418,48.828
22.949,34.668,32.227,7.324,54.199
43.945,30.273,28.32,12.207,42.48
27.344,31.25,35.156,11.719,-15.137
11.23,33.203,39.551,7.812,-21.484
-1.465,28.809,42.48,9.277,18.066
17.09,23.926,50.781,13.672,16.602
42.969,27.344,46.387,16.113,-15.625
33.691,31.25,38.086,15.137,0.488
16.113,30.762,39.062,14.16,29.297
-3.906,28.32,42.969,15.625,58.105
13.184,23.926,46.387,16.113,5.859
42.969,22.461,42.969,16.113,-45.898
33.691,20.508,34.18,11.719,5.859
17.09,21.484,41.504,10.254,19.531
-4.395,26.855,43.457,4.883,-20.02
3.418,27.344,41.016,-0.977,54.688
41.016,25.391,43.457,7.812,49.805
34.668,28.32,44.434,14.16,-36.133
15.137,30.273,49.805,12.207,31.25
-1.465,30.762,47.363,6.348,98.633
3.418,29.785,40.039,11.23,16.602
38.574,29.297,43.457,16.602,-57.129
33.691,24.414,46.875,10.742,-40.039
15.137,21.973,44.434,8.301,20.996
1.465,29.785,41.992,8.301,74.707
0,35.156,44.434,8.301,77.148
34.18,32.715,49.805,16.602,29.297
42.969,28.809,48.34,21.484,50.293
30.762,30.762,40.527,21.973,26.367
13.184,35.156,35.156,17.578,-42.48
5.371,40.527,32.227,11.719,28.32
38.574,38.086,29.297,20.996,45.41
44.434,32.227,20.508,26.367,20.02
26.855,28.809,15.625,23.438,11.23
14.16,32.715,28.809,25.391,0.488
5.859,33.691,33.691,25.879,11.23
33.203,34.18,32.715,26.367,-39.062
48.828,36.621,34.18,31.25,32.227
39.062,41.016,29.785,33.691,56.152
20.508,45.41,27.832,26.367,6.348
-2.93,41.504,23.926,17.09,26.855
19.043,39.062,29.785,14.16,20.508
41.504,39.062,35.645,14.648,32.227
26.367,37.598,32.227,14.16,26.855
7.324,33.691,30.762,3.906,41.992
-8.789,28.32,28.809,0.488,51.758
13.184,27.344,29.785,6.348,122.07
36.133,30.762,28.32,9.766,87.891
26.855,27.344,21.973,11.719,-56.152
13.672,23.438,24.902,8.301,-68.359
-2.441,28.809,24.414,9.277,-56.152
14.648,29.297,18.555,14.16,-47.363
45.41,29.785,22.461,19.043,-32.715
41.992,30.762,21.973,20.996,-38.574
22.461,33.691,17.578,15.625,-22.949
2.93,35.645,22.461,10.742,-25.879
22.949,37.109,21.484,11.719,4.395
57.129,41.016,19.043,16.113,75.684
45.898,39.062,16.602,15.625,36.133
22.949,36.621,17.578,13.184,2.441
3.906,39.062,24.902,10.742,72.754
11.23,38.086,29.785,9.277,63.965
42.48,34.668,26.855,12.207,13.184
43.945,31.738,23.438,17.578,-23.926
22.949,29.785,31.25,10.254,28.32
-2.93,31.738,35.156,-1.465,-11.719
4.883,29.785,37.598,2.93,-19.531
42.48,27.832,40.527,13.184,29.785
43.945,28.32,44.434,15.137,34.18
20.996,24.902,44.922,8.789,43.945
-2.93,23.438,39.551,2.441,23.926
-7.324,20.508,33.203,0,35.156
27.832,23.438,35.156,7.324,36.133
39.062,25.879,38.086,14.16,19.531
24.414,20.02,41.016,9.277,94.238
7.324,17.578,46.875,8.301,58.594
3.418,22.949,47.363,11.719,16.113
36.133,22.949,51.758,15.625,47.852
43.457,15.625,55.664,17.578,-16.113
23.926,11.719,56.641,17.09,-37.109
4.395,13.184,60.547,11.23,26.855
-3.906,12.695,65.43,5.859,61.523
30.762,9.766,64.453,11.719,34.18
44.434,10.742,58.594,15.137,20.996
26.855,10.742,49.316,11.23,53.223
10.742,14.648,41.016,11.23,-14.648
-0.977,21.484,44.922,10.254,-49.805
24.414,21.973,48.828,12.207,55.664
40.039,24.902,43.945,11.23,82.031
32.715,27.344,41.016,11.23,33.203
20.996,26.367,37.598,7.324,11.719
-4.883,21.484,31.25,-2.441,15.137
11.23,18.555,34.18,3.906,40.527
42.969,20.508,40.527,18.066,20.996
33.691,22.461,39.062,20.02,-13.672
13.672,27.344,34.18,13.184,36.621
-4.883,28.32,28.32,10.742,44.922
13.184,32.227,28.809,14.648,15.625
45.898,36.133,35.156,22.949,18.066
37.109,34.668,34.668,23.926,13.184
15.625,34.668,27.832,14.648,24.902
-3.418,36.621,24.414,7.812,21.973
10.254,34.668,28.809,10.254,-3.906
41.504,32.227,36.133,11.23,-13.184
35.156,32.227,29.297,7.324,14.16
17.578,27.832,20.996,-2.441,32.715
-3.418,29.297,28.809,-7.324,37.109
0.977,32.227,33.203,-3.418,-20.02
27.344,31.25,32.227,-6.836,-5.859
26.367,34.18,31.738,-2.441,44.922
13.184,33.203,33.203,2.441,38.574
-7.812,33.691,31.25,-3.906,25.879
-9.277,34.668,31.738,-10.254,67.383
21.484,32.227,35.645,-12.207,92.285
25.879,27.344,35.156,-8.301,30.273
15.137,24.414,36.133,-6.836,31.25
-0.488,28.809,36.621,-8.301,33.691
-1.465,31.25,35.156,-8.789,25.391
36.133,31.25,36.621,3.906,-36.133
48.34,30.273,38.086,11.23,-19.043
35.156,31.25,35.645,8.789,17.09
17.09,39.551,27.832,6.836,-42.969
7.324,39.062,20.996,-0.977,-26.855
41.016,29.297,19.531,-0.977,33.203
56.641,26.367,23.926,9.277,51.27
35.645,25.391,26.855,11.719,25.879
15.625,29.297,23.438,5.371,57.617
4.395,36.133,22.461,4.883,89.844
35.156,37.598,22.461,12.695,33.691
54.688,33.691,27.832,17.09,-24.902
33.203,33.203,28.809,12.695,13.672
11.719,33.203,21.973,6.348,23.926
0.488,29.785,16.602,5.371,6.348
24.414,30.762,17.578,7.812,45.898
47.852,31.738,16.602,8.789,49.316
34.18,24.902,16.113,12.207,-21.484
12.207,20.508,22.949,6.836,-61.035
-5.859,23.438,23.926,0,-6.836
19.043,26.367,22.461,5.859,20.02
48.828,27.344,29.785,13.184,-9.766
35.645,29.785,30.762,15.137,-20.996
16.113,31.738,28.32,8.301,-3.906
-1.953,32.715,24.902,1.953,46.875
16.113,34.668,20.996,12.695,57.129
45.41,34.668,27.832,19.043,65.918
43.945,35.156,23.926,22.949,8.789
27.832,37.598,20.996,20.508,21.973
0.488,38.574,20.508,11.719,102.051
14.16,33.203,26.367,15.137,90.332
46.387,28.32,33.203,19.043,47.852
43.457,30.273,28.809,18.555,-20.508
29.785,37.109,27.344,16.113,-24.414
5.859,41.992,29.785,10.742,0
8.301,35.645,26.855,6.836,29.785
44.922,28.32,28.809,14.16,49.316
44.922,26.367,32.715,20.508,-17.09
26.367,28.32,33.691,17.09,-19.531
4.395,26.367,32.227,9.766,16.602
2.441,22.949,29.785,6.348,34.668
38.086,24.414,35.156,10.254,42.969
44.922,26.855,38.574,19.043,-12.695
24.414,26.855,38.086,16.113,-24.414
-3.418,28.32,37.598,6.348,17.578
-6.348,33.691,34.668,4.395,23.926
38.086,37.109,37.598,13.184,-58.594
47.363,36.133,40.527,18.066,-33.203
29.785,31.738,34.668,22.949,60.059
15.137,33.203,36.133,23.926,18.555
10.254,33.203,39.062,22.949,12.207
36.621,30.273,37.109,23.438,27.832
40.527,29.297,36.133,16.602,0
23.438,30.762,27.344,14.648,2.93
11.719,35.645,22.461,18.066,44.922
4.883,39.551,21.973,17.578,77.148
29.785,39.551,23.438,13.184,30.762
41.504,36.133,27.344,16.602,56.641
29.785,32.227,24.414,22.949,66.406
17.09,36.133,27.344,22.461,37.109
3.906,44.434,34.18,21.484,35.156
31.738,48.34,32.715,21.973,12.695
54.199,48.34,28.32,25.391,40.527
39.551,44.434,25.879,29.297,36.133
21.973,41.504,27.344,20.02,-30.273
0.977,40.039,25.391,9.766,-22.949
20.508,39.062,21.484,12.207,-2.93
50.293,43.945,28.809,18.555,23.926
41.992,52.246,32.715,24.902,7.324
21.484,50.293,32.715,18.555,48.828
8.301,46.387,40.527,12.207,90.332
27.832,45.41,45.898,19.043,71.777
54.199,46.387,49.805,23.926,27.832
42.969,47.363,46.387,23.438,39.551
26.855,45.898,36.621,21.484,56.152
11.719,44.922,27.344,22.461,-36.621
20.02,44.434,31.738,20.996,-21.973
51.758,44.922,39.551,25.391,42.48
49.316,40.527,34.18,30.273,23.438
27.344,38.086,31.25,22.461,0
0.977,39.551,34.668,14.648,-35.156
4.395,36.621,36.621,11.719,-17.09
41.504,39.551,32.227,13.184,-1.465
44.922,41.504,30.273,17.578,10.742
34.18,40.527,27.832,23.438,4.395
13.672,37.598,23.438,15.625,34.668
8.301,30.762,25.391,6.348,75.684
40.039,23.926,35.645,15.625,70.801
42.969,20.508,37.598,17.09,61.035
27.344,22.949,33.691,11.719,41.504
11.23,22.949,29.785,11.23,58.105
9.766,21.484,29.785,13.672,15.137
42.48,21.973,38.574,20.508,-1.953
49.805,22.949,36.133,20.02,-1.465
33.691,25.391,27.832,17.09,20.996
16.113,32.715,26.855,12.695,30.762
6.836,38.086,21.484,10.254,16.602
39.551,36.621,19.043,20.02,3.906
49.316,35.156,30.273,19.043,26.855
28.809,38.574,35.156,12.695,34.18
18.066,42.969,28.32,13.184,-26.855
9.277,41.992,27.344,8.789,-19.043
35.645,41.016,30.273,13.672,27.832
55.664,42.48,37.109,16.602,13.184
42.48,43.945,46.875,11.719,-13.184
19.531,39.062,44.434,3.906,34.18
2.441,39.551,41.016,-1.953,7.324
26.367,41.016,46.387,-1.953,-29.297
48.828,40.527,49.316,-0.977,-0.977
38.086,41.016,38.574,3.906,22.949
18.066,35.156,32.227,4.883,47.852
0.488,32.715,38.086,5.859,29.785
22.461,36.133,37.109,10.254,25.391
47.363,37.598,34.18,7.812,6.836
38.086,37.109,30.762,10.254,20.02
23.926,38.086,27.832,10.254,29.297
6.836,42.969,35.645,4.395,13.184
19.043,42.969,44.922,5.371,-0.977
48.828,42.969,46.387,11.719,23.926
40.039,40.039,45.898,15.137,50.293
19.531,36.133,49.805,10.742,25.391
1.465,36.621,50.293,2.93,1.465
15.625,40.039,46.875,3.906,25.391
50.293,49.316,44.434,9.766,52.734
40.527,50.293,43.457,10.742,114.258
20.02,49.316,43.457,8.789,93.262
6.348,58.105,41.016,5.859,27.832
13.184,62.5,35.156,4.395,11.23
40.039,60.059,36.133,3.418,19.043
37.598,58.105,41.016,6.348,48.828
21.484,50.781,40.039,9.766,29.785
0.488,48.828,40.527,8.301,48.828
2.441,59.082,42.969,11.23,23.438
39.551,65.918,47.363,18.066,-20.02
44.922,65.43,55.664,16.602,22.949
24.414,60.547,56.152,13.672,41.016
3.906,56.641,53.711,9.766,20.02
-1.953,52.246,47.852,5.859,43.945
30.273,45.898,44.434,6.836,32.715
40.039,47.363,45.41,5.859,9.277
23.926,49.316,43.457,2.441,72.266
3.906,43.457,43.457,-4.395,83.008
-6.348,43.457,43.457,-4.883,22.461
26.855,41.016,42.969,0,14.648
44.434,39.551,44.434,1.465,56.152
29.785,37.109,41.992,0.977,30.762
10.742,33.203,39.551,-2.93,-30.273
-2.441,37.598,43.945,0.977,5.371
24.902,39.062,48.34,4.883,10.742
48.828,37.598,46.387,8.789,-0.977
41.016,37.598,48.34,17.578,7.812
24.414,45.41,46.875,12.695,-18.066
4.395,50.781,38.574,4.395,17.578
20.02,41.016,36.133,4.883,47.852
38.574,34.668,38.574,7.812,-9.766
29.297,35.156,32.715,14.16,-24.414
12.695,37.598,30.762,10.742,-7.812
-4.395,41.992,32.715,4.395,54.688
20.508,45.898,31.738,12.695,50.781
40.527,43.945,32.227,15.137,7.812
25.391,40.527,30.273,11.23,-5.371
9.766,39.551,28.809,14.648,26.367
-10.254,39.551,28.32,8.789,51.758
7.324,40.527,29.297,6.348,36.621
37.598,39.062,29.297,4.883,-29.297
24.414,33.203,23.926,-1.465,-5.371
3.906,30.762,21.484,-6.348,27.832
-13.672,32.227,28.32,-12.207,11.23
-1.465,33.203,35.156,-11.23,64.453
31.25,31.25,27.832,-4.883,9.766
31.738,32.715,24.414,3.906,-41.992
19.531,29.785,28.809,6.348,14.648
-2.93,26.855,34.18,-3.906,21.973
0.977,29.297,39.062,-1.953,44.434
42.48,27.832,41.016,7.812,35.156
48.34,28.809,39.062,10.254,-17.09
33.691,27.344,34.668,14.648,1.953
8.301,24.902,34.18,9.277,35.645
0,23.926,34.18,2.93,49.805
41.504,22.949,32.227,11.23,66.895
50.781,22.949,31.738,13.184,39.062
24.414,20.02,33.691,10.254,-0.488
4.883,18.066,33.691,9.277,25.391
0.488,17.578,32.227,6.836,43.457
33.691,18.555,34.18,5.859,31.738
46.387,20.02,30.762,9.766,-26.367
31.25,17.09,28.809,11.719,-105.957
4.883,12.695,35.645,-0.488,-62.5
-15.137,8.789,40.039,-2.93,-18.066
17.578,10.254,43.945,10.742,-6.836
40.527,15.137,42.48,12.695,27.832
27.344,12.695,41.016,5.859,43.457
7.812,12.207,49.316,2.93,56.152
-2.441,15.137,51.27,1.465,3.418
22.949,14.16,46.387,-1.953,-15.625
37.598,15.137,41.992,1.465,37.109
23.926,14.648,40.039,9.277,18.066
8.789,15.137,44.434,11.23,1.953
-4.395,17.09,45.41,7.812,50.293
22.949,23.438,43.945,11.23,69.336
47.363,26.855,44.922,18.555,29.785
32.715,26.367,42.48,19.531,-6.836
16.602,23.926,39.551,13.672,44.922
-2.441,25.391,41.016,5.371,62.5
19.043,28.809,43.457,8.789,2.93
48.828,27.832,46.387,18.066,-38.574
38.086,25.391,43.945,20.508,-56.152
26.367,24.414,40.039,20.508,-2.93
4.395,24.414,41.504,16.602,15.625
16.602,27.832,41.016,18.066,-36.133
49.805,35.645,40.527,22.949,-60.059
42.48,37.109,37.598,18.066,1.953
25.391,28.809,31.738,12.695,-2.441
4.395,28.32,34.18,10.254,-0.488
7.324,30.762,37.109,8.301,47.852
37.598,25.879,32.715,7.324,-16.113
41.016,27.832,27.832,12.695,-53.223
28.809,29.785,28.32,18.066,-10.742
4.395,26.367,32.227,12.695,0.977
7.812,22.949,36.133,11.719,31.25
48.34,25.879,37.598,13.672,38.086
54.688,31.738,36.133,18.555,24.414
35.645,28.809,32.227,24.414,43.945
9.766,26.855,37.109,16.602,109.375
3.418,28.809,44.434,6.836,78.125
35.156,27.832,43.457,8.301,-10.742
44.922,29.297,37.109,15.137,-20.508
35.156,31.25,32.715,20.02,14.648
11.23,33.691,34.668,6.348,64.941
0.488,33.203,35.645,1.953,39.062
38.086,32.715,36.621,11.719,23.438
52.246,32.715,33.691,14.648,20.508
29.785,31.738,26.855,7.324,-36.133
3.906,33.203,29.297,-1.953,0.977
-1.953,34.668,28.809,-0.977,27.344
30.273,32.715,35.156,8.789,11.719
41.992,34.668,50.293,12.695,34.18
27.344,40.527,50.293,15.137,41.016
8.301,38.086,45.41,8.789,20.996
-13.184,37.598,45.41,1.953,62.012
19.043,41.992,44.922,11.23,91.797
45.41,44.922,42.969,16.113,18.066
29.785,42.48,31.738,16.113,1.465
9.766,41.504,23.926,9.766,20.996
-5.859,44.434,24.902,4.883,14.16
16.602,42.48,28.32,7.812,35.156
39.062,40.527,27.344,6.836,20.508
28.809,37.109,27.344,8.789,19.531
17.09,33.203,23.926,10.254,-24.414
-0.977,37.598,30.273,4.395,-33.203
11.719,47.363,40.039,3.906,12.207
38.574,50.781,38.574,5.859,18.555
29.785,46.387,37.109,3.418,54.199
13.184,42.969,40.039,2.441,47.852
-5.859,44.922,41.992,0,-28.32
6.836,46.875,35.156,-5.371,-51.27
38.574,47.363,31.25,-2.93,10.742
40.527,45.898,24.414,5.371,26.855
26.855,40.527,18.555,5.371,35.156
0.488,41.504,24.414,-0.977,35.156
-1.465,38.086,26.855,-6.348,-17.578
29.297,35.645,21.973,-0.977,-17.578
34.668,38.574,19.531,7.324,-4.883
17.578,41.992,18.066,6.348,41.992
-7.812,43.945,23.926,-3.418,60.059
-12.695,40.527,31.738,-9.277,61.523
24.414,38.086,34.668,-2.441,48.34
34.18,40.527,31.738,3.418,-19.531
22.461,41.992,33.691,3.418,2.441
3.906,38.574,39.062,-1.465,47.363
1.465,40.039,41.016,-5.371,19.043
35.156,42.48,36.133,-2.441,31.738
39.062,44.434,30.762,2.441,46.875
23.926,43.945,28.809,1.465,42.48
3.906,40.527,25.879,-9.277,64.941
-4.395,40.527,32.227,-13.184,45.898
32.715,41.016,36.621,-5.859,45.41
41.992,40.527,34.668,-0.977,74.219
24.902,37.109,30.273,0,73.242
14.16,36.133,23.926,-2.441,14.16
3.906,38.574,24.414,-8.301,5.859
30.762,39.062,23.926,-8.301,-1.953
53.711,39.551,25.391,0.488,-2.441
40.039,37.598,29.785,6.836,38.086
16.602,34.668,33.691,3.418,43.457
7.812,35.156,35.156,1.953,51.758
39.551,36.621,37.109,4.883,19.531
58.105,40.527,34.18,7.812,25.391
39.551,42.969,25.391,10.742,49.805
18.066,42.48,22.461,6.348,38.574
1.465,39.551,29.785,1.465,9.277
23.438,35.645,41.016,2.441,37.598
46.387,35.156,40.527,5.371,42.969
31.25,38.086,31.25,6.348,52.734
19.043,37.109,21.484,5.371,48.34
0.488,34.668,25.391,-0.977,38.574
16.113,33.691,26.855,0.488,-17.09
46.387,32.715,30.273,4.883,-39.551
36.133,31.738,36.621,5.859,21.973
24.902,30.273,29.297,10.254,-23.926
6.348,37.598,23.438,3.418,11.23
12.695,42.969,19.043,-1.953,54.688
46.387,40.527,20.508,6.348,-2.441
45.41,39.551,24.414,16.602,-19.531
31.25,39.062,30.273,20.996,22.461
16.602,41.016,30.273,18.066,43.457
23.926,42.969,24.414,16.113,0.977
54.199,41.016,27.832,14.648,-30.273
51.27,41.992,29.297,12.695,16.602
36.133,37.109,21.484,12.695,33.691
20.508,36.621,22.461,10.254,41.504
28.32,40.039,30.762,11.719,34.668
63.965,37.109,31.738,21.973,23.926
64.453,36.621,30.273,24.414,40.039
47.363,38.086,24.902,22.949,-15.625
20.508,39.062,17.578,14.648,5.371
13.672,38.086,21.973,9.277,13.672
53.711,39.062,28.809,20.02,-17.578
57.617,39.551,30.273,22.949,-1.465
35.156,37.598,36.133,18.555,57.129
17.578,35.156,35.645,14.16,43.945
0.977,33.203,37.109,10.254,-12.695
25.391,34.18,38.574,16.602,18.066
38.574,31.738,31.738,19.043,-23.438
25.391,29.297,23.438,15.625,-90.82
11.23,30.273,21.484,12.695,-19.043
8.301,34.668,22.949,19.531,-19.043
41.992,38.086,26.367,30.762,-26.855
52.246,32.227,32.227,29.297,-16.602
35.645,24.902,38.086,25.879,22.461
29.785,25.879,37.598,31.25,17.578
13.672,28.809,40.039,28.809,-61.035
30.273,26.367,43.457,27.832,-38.086
57.129,27.832,41.992,38.574,-29.785
44.922,34.18,44.922,43.457,2.441
27.344,36.133,46.875,39.551,58.105
7.324,38.086,45.41,32.715,0.488
25.879,40.039,46.387,36.621,-16.602
56.152,35.645,45.41,41.016,58.594
40.039,30.273,43.945,35.156,70.801
21.484,30.762,41.992,29.297,66.895
3.906,30.762,44.434,19.043,70.312
14.648,29.297,44.434,11.719,67.383
44.434,26.855,44.434,14.16,20.02
38.574,26.367,47.852,17.578,53.711
15.137,27.832,44.434,15.137,95.215
-6.836,25.391,40.039,6.836,35.156
3.906,24.414,37.109,5.371,-0.488
39.062,28.809,38.574,17.09,35.156
36.621,30.273,35.645,14.648,14.648
15.625,30.273,34.18,5.859,-14.648
0.977,31.25,41.504,4.395,28.32
9.277,29.297,37.109,3.906,38.574
37.109,25.879,35.645,9.277,65.918
36.133,25.391,44.434,17.578,27.344
26.367,23.438,49.805,21.973,15.137
12.695,23.438,45.41,20.996,24.902
7.812,26.855,45.898,14.16,24.902
39.062,23.926,46.875,15.625,16.602
45.41,21.973,44.922,20.02,-11.23
29.297,19.531,42.969,19.043,34.18
7.324,14.16,41.504,13.672,8.301
-3.906,11.23,42.969,9.766,35.156
31.25,11.23,41.016,12.695,63.477
43.945,15.137,36.133,16.602,-3.906
23.926,18.066,30.762,15.625,13.672
8.301,17.09,25.391,16.602,58.105
1.465,19.531,24.902,16.602,53.711
33.691,22.949,26.855,23.926,31.738
47.363,18.555,28.809,23.926,48.828
32.227,11.719,25.391,24.902,18.555
17.578,10.254,26.855,28.809,-50.781
6.348,11.719,33.203,23.438,0.977
34.18,12.695,34.668,25.879,29.297
45.898,10.254,39.062,28.809,12.695
34.18,3.418,41.992,27.344,-11.719
24.414,1.953,47.852,28.32,16.113
10.742,4.395,55.664,25.879,42.48
32.227,0,56.641,23.438,-2.93
48.828,-5.859,58.594,26.367,-20.996
40.039,-1.465,62.012,29.297,-12.695
29.785,0.488,58.105,24.902,-1.465
6.348,1.465,53.223,11.719,37.598
22.949,10.742,53.223,14.16,19.531
48.828,17.09,49.316,20.02,-40.527
33.691,20.996,45.41,13.672,-25.879
19.531,24.414,43.457,12.695,44.922
4.883,23.926,38.574,9.766,22.949
12.695,21.484,34.18,6.348,21.973
37.598,17.09,37.109,13.672,23.438
33.203,14.648,44.434,19.531,-4.883
17.578,12.695,51.27,19.531,17.09
-3.418,9.766,57.617,10.742,52.246
6.348,16.602,65.918,9.277,93.262
36.133,20.02,65.918,17.09,83.496
35.645,20.02,61.523,23.438,6.836
22.949,18.066,60.059,20.508,-9.766
-3.906,11.719,55.664,7.812,-22.461
-2.93,10.742,52.246,5.859,22.461
32.715,11.719,52.246,12.695,51.27
29.785,6.348,48.828,11.719,18.066
17.578,6.348,41.504,14.648,61.523
0,7.812,39.062,18.066,16.602
-4.395,10.254,46.387,11.23,-9.277
26.855,17.578,51.27,7.324,72.266
31.25,20.996,51.27,11.23,61.523
16.602,21.484,46.875,11.719,51.27
-0.977,23.926,49.316,6.348,67.871
-6.348,26.367,48.34,3.906,63.965
28.32,25.391,42.969,4.395,53.711
34.668,23.438,38.574,3.418,21.973
17.578,23.438,28.32,4.395,16.113
1.465,19.043,26.855,-1.953,37.598
-9.766,18.066,28.809,-9.766,67.383
23.926,24.414,28.32,-4.395,6.348
42.48,27.344,36.621,5.859,4.395
23.926,23.438,37.598,6.348,53.711
3.418,21.973,33.203,-2.441,80.078
-6.348,28.809,34.18,-2.441,79.59
28.809,30.273,37.598,6.348,-2.441
46.387,28.809,39.062,10.254,-6.348
28.809,30.762,35.645,10.742,29.785
16.602,32.227,37.109,10.254,19.531
3.418,28.809,42.969,9.766,3.418
23.926,27.832,42.48,13.184,16.113
51.27,28.809,36.621,20.996,97.168
41.504,28.809,33.691,24.902,80.078
25.391,32.227,37.109,19.043,34.668
5.371,37.109,39.551,8.789,33.203
22.461,37.109,36.133,10.254,-5.371
50.781,36.133,34.18,17.578,-18.066
32.227,36.621,39.551,12.695,-14.16
14.16,35.156,39.551,5.371,-20.508
-5.859,33.203,37.598,3.418,-8.301
5.859,28.809,39.062,0.977,17.09
41.992,31.25,42.48,3.906,19.043
38.086,34.668,45.41,14.16,-4.883
20.02,33.691,45.41,18.555,-20.508
-0.488,32.227,46.387,16.113,-1.953
11.719,32.227,50.781,19.043,21.973
46.875,31.25,46.875,22.461,48.34
41.992,34.668,36.133,23.926,20.508
28.32,33.203,29.785,27.344,44.434
5.371,32.715,28.32,22.461,46.875
2.441,38.574,31.25,17.578,-19.531
42.969,38.574,34.668,23.438,-2.441
46.387,34.668,35.156,24.414,-21.973
29.785,30.273,31.25,20.02,15.137
13.672,29.785,33.691,19.531,15.625
13.184,31.25,35.645,20.508,-9.766
44.434,32.227,32.715,17.09,65.918
46.875,30.762,35.156,13.184,73.73
31.25,31.738,30.762,12.695,19.531
11.23,31.738,29.297,6.836,-0.977
2.93,28.809,37.109,2.441,5.371
40.039,30.273,36.621,11.719,5.859
50.781,31.25,37.598,18.555,24.414
26.855,26.855,36.621,21.973,42.48
7.812,27.832,34.668,21.484,37.109
0,33.691,35.645,18.555,-0.977
30.762,37.109,32.715,21.484,35.156
45.898,35.645,28.32,27.832,122.07
34.668,37.598,21.973,29.785,55.664
21.484,40.039,19.043,24.902,-11.719
4.883,43.457,21.484,18.066,71.289
27.344,42.969,19.043,21.973,67.383
47.363,39.062,19.043,27.344,21.484
36.133,40.039,25.879,26.855,53.223
21.973,39.551,34.18,27.344,34.668
4.883,34.668,39.062,19.043,20.996
28.32,34.18,39.551,16.113,25.879
53.711,38.574,46.387,23.926,-14.16
38.574,37.109,48.34,23.438,-2.93
25.879,36.621,45.898,24.414,28.32
11.23,38.086,48.828,25.391,43.457
23.926,37.598,47.852,20.996,45.41
51.758,38.086,43.945,20.508,-41.992
42.48,40.527,45.41,24.414,-15.137
23.438,36.621,38.574,18.555,26.367
4.395,33.691,33.691,6.348,-14.16
14.16,36.621,39.551,7.812,6.348
47.852,38.086,37.598,15.137,38.574
41.016,40.039,38.086,18.066,44.922
21.973,36.621,37.598,16.602,28.809
8.301,37.598,35.156,10.742,32.227
21.973,39.551,32.227,12.695,-19.043
57.129,39.551,28.809,19.531,-45.41
55.176,45.898,34.18,20.02,-0.488
39.551,45.898,31.25,20.996,34.668
18.555,44.922,25.879,19.531,16.113
20.02,46.387,31.738,20.02,-0.488
54.688,45.898,35.645,28.32,43.945
55.176,45.898,34.668,28.32,61.035
37.109,36.133,23.926,18.555,4.395
22.461,30.273,22.949,12.695,20.508
22.949,33.691,27.344,12.695,12.695
53.223,33.203,34.18,20.996,-38.086
59.082,34.668,37.598,27.344,30.273
42.48,35.645,30.273,21.484,39.551
17.09,29.785,26.855,10.742,-53.223
3.906,28.809,25.879,7.324,-89.355
29.297,33.691,24.414,1.953,-58.105
34.668,32.715,25.391,-4.395,20.508
20.02,31.25,25.879,-0.977,86.426
9.766,32.715,24.414,-0.977,45.898
3.418,32.227,28.809,-6.836,0
27.344,33.203,30.273,-5.859,-1.465
43.457,34.668,29.785,0,-41.504
36.621,38.086,31.25,8.789,26.855
18.555,38.086,28.32,6.348,111.328
0.977,34.18,28.809,4.883,52.734
30.762,37.109,36.133,17.09,-10.742
55.664,37.598,35.156,23.438,-5.859
44.434,38.574,33.203,25.391,0.977
29.785,39.551,31.738,25.391,60.059
16.113,35.156,28.809,23.926,-4.883
33.691,33.203,34.18,23.926,-20.996
57.129,33.203,40.039,27.344,50.293
51.27,36.621,35.645,31.25,35.645
36.133,43.457,33.203,28.32,22.461
12.207,47.363,39.062,15.137,-39.062
18.555,46.387,41.992,3.418,-4.395
41.016,42.48,40.039,2.93,10.254
34.668,41.504,37.598,2.93,4.395
14.16,40.039,30.762,-7.812,14.16
-11.23,41.504,27.344,-22.949,-8.301
3.906,42.969,30.273,-24.414,43.945
42.48,44.434,32.227,-12.695,19.531
37.598,49.316,30.762,-12.695,2.441
14.648,46.387,29.785,-18.555,73.242
-14.16,38.574,35.156,-23.926,61.035
0.488,33.203,37.109,-18.066,2.93
39.551,26.855,34.18,-9.277,7.812
35.645,28.809,38.086,-3.906,62.012
23.926,32.227,35.645,3.906,41.016
7.324,34.18,34.18,-0.488,-14.648
5.859,39.551,41.016,-0.488,-9.766
36.621,41.016,37.598,10.254,49.805
33.691,36.133,34.668,9.766,89.355
16.602,36.621,33.691,11.23,19.531
3.418,40.527,35.156,16.602,-15.625
-4.395,41.504,49.805,14.648,68.359
27.832,38.086,53.711,15.137,74.219
38.574,38.086,50.293,19.043,27.832
22.949,41.016,45.898,19.043,9.277
3.418,37.109,38.086,15.625,-30.273
-2.93,29.785,38.574,11.23,0.977
31.25,23.926,46.875,6.348,-8.301
41.992,25.391,51.27,8.301,-15.625
32.715,27.344,49.316,16.602,30.762
17.578,26.855,45.41,9.277,86.426
0.488,22.949,41.504,-5.371,89.355
34.18,18.555,41.016,2.441,6.836
54.688,22.949,42.48,12.695,-9.766
41.016,29.297,40.039,13.184,-41.016
22.949,29.785,35.645,10.254,-20.508
3.906,28.32,29.297,1.953,68.848
25.879,29.785,23.438,4.395,82.031
45.41,30.273,21.484,16.113,36.621
27.344,26.367,21.484,19.531,-7.812
8.301,24.902,25.391,15.625,20.02
-4.883,26.367,28.32,17.578,41.016
14.16,24.414,34.18,25.879,13.184
38.086,25.391,41.504,32.715,26.855
25.391,30.273,38.574,30.762,4.883
8.301,32.715,28.32,25.391,-30.762
-7.812,40.527,26.855,20.02,38.574
3.418,47.363,28.809,14.648,30.273
31.25,43.945,30.762,14.16,49.805
28.809,39.551,32.715,24.414,54.688
20.996,42.48,25.391,30.273,-9.277
4.883,48.828,28.32,20.02,15.625
15.625,51.27,33.203,15.137,13.184
48.34,51.27,29.297,20.996,33.691
45.41,50.781,26.367,24.414,82.52
32.715,47.363,22.461,25.391,80.078
15.625,52.734,24.902,25.391,50.781
24.902,61.523,27.832,31.25,-10.254
59.57,62.012,28.32,38.086,30.273
56.152,56.641,20.996,42.48,67.871
39.551,46.875,14.16,41.992,15.625
18.066,39.551,16.602,35.156,30.273
18.066,40.527,20.996,35.156,27.344
54.199,43.457,26.367,37.598,-1.953
55.664,45.41,33.203,36.133,7.812
27.832,44.434,28.809,29.297,85.449
5.371,40.527,22.461,20.996,68.848
5.371,41.016,22.461,18.555,-9.766
31.25,40.527,20.996,19.531,6.348
30.273,37.109,23.926,16.602,68.359
18.066,36.621,27.832,17.578,42.48
0.488,37.109,30.273,13.672,-20.02
-6.836,37.109,36.621,8.301,-16.602
30.273,39.551,37.598,14.648,34.668
43.457,33.203,31.25,17.09,37.598
25.391,26.855,30.273,11.719,-14.648
8.301,26.367,28.809,4.883,-16.602
-4.395,25.391,29.785,-3.906,-24.902
20.996,25.391,41.016,0.977,12.695
44.434,23.926,40.039,13.184,43.457
32.715,23.438,37.598,14.16,31.738
17.578,25.391,38.086,14.648,27.832
7.812,28.809,37.598,15.625,6.348
31.25,32.715,40.039,14.648,25.879
49.316,33.203,36.621,17.09,13.184
36.621,34.668,33.691,19.043,-29.297
22.949,36.133,37.109,19.043,5.859
5.859,35.156,44.922,14.648,40.527
23.438,33.691,53.223,14.648,48.34
45.41,30.762,56.152,17.578,64.453
33.691,31.25,54.688,19.531,38.574
16.602,30.762,51.27,17.578,5.371
-8.301,27.344,46.875,6.348,6.836
7.324,26.855,50.293,6.348,47.363
37.109,27.344,56.152,15.625,77.148
30.762,26.367,55.664,16.602,71.777
20.996,29.785,54.688,20.508,56.152
3.906,35.156,55.664,19.043,33.691
15.137,31.738,57.617,11.719,29.297
44.434,29.297,61.523,10.254,62.988
40.039,31.25,59.082,10.742,49.805
23.926,29.785,49.316,11.23,28.32
-0.977,24.902,46.875,7.812,24.902
3.906,28.32,49.805,7.324,8.301
39.551,31.738,43.457,11.719,46.875
27.832,27.344,42.48,8.301,100.586
8.789,26.367,39.551,6.348,42.969
-4.883,33.691,34.18,5.859,-50.293
-6.348,41.504,36.621,2.441,-11.23
23.926,42.48,35.156,-0.977,37.109
28.809,39.551,37.109,0.977,25.391
12.695,34.668,38.574,4.883,-10.254
-6.836,31.25,36.133,0.488,-7.812
-10.742,30.273,41.504,-3.906,-10.742
25.879,30.273,45.41,2.93,2.93
39.551,31.25,42.969,11.719,-3.906
22.461,33.203,36.621,13.184,-6.348
5.859,34.668,32.715,7.812,29.785
1.953,34.668,29.785,6.836,31.25
31.25,35.645,30.762,12.207,1.953
42.48,39.062,35.156,12.695,27.832
31.738,37.598,34.668,15.137,-5.371
17.578,36.133,39.062,20.508,-13.672
7.812,37.109,39.551,19.531,46.387
37.109,36.133,37.598,17.09,24.902
54.688,35.156,39.062,17.578,-26.367
40.527,38.574,42.969,20.02,-29.297
24.414,38.574,38.086,20.02,39.551
8.301,36.133,32.715,15.625,0.977
30.762,38.086,34.18,17.09,2.93
53.711,40.527,33.691,21.973,28.32
32.227,35.645,36.621,15.625,-2.93
9.277,28.32,37.598,7.812,20.508
-2.93,26.367,34.668,3.418,15.625
14.648,28.32,33.691,2.93,22.461
40.039,30.762,31.738,4.883,28.32
33.691,33.691,32.227,4.395,-17.09
19.043,33.203,34.18,4.395,31.738
-4.883,30.273,31.25,-2.93,47.852
10.254,31.25,31.25,-0.488,10.254
47.852,28.32,33.691,13.184,26.367
39.062,25.879,31.25,18.555,25.391
23.438,26.855,26.367,14.16,-1.953
3.418,26.367,23.926,5.371,33.203
9.766,24.902,22.461,2.93,5.371
36.621,17.09,20.508,0.488,-62.012
33.691,12.207,23.438,-1.953,-39.062
16.113,12.207,25.391,-6.836,-0.488
-4.395,12.207,22.461,-8.789,74.707
-0.488,16.113,21.484,-5.371,100.586
37.109,20.996,22.461,3.418,1.953
43.945,27.832,26.855,13.672,-36.621
27.344,26.367,27.832,14.16,63.965
11.23,22.461,25.879,9.766,93.262
12.695,25.391,29.297,9.766,36.621
45.898,25.391,36.621,15.137,-34.668
48.34,22.461,41.504,17.09,-15.625
26.367,19.531,43.457,13.184,40.527
4.395,16.113,38.086,6.836,53.711
-5.859,12.695,37.598,0.977,48.34
24.414,12.695,42.969,3.418,15.625
34.18,15.137,36.133,6.348,1.465
15.625,14.648,30.273,6.836,1.953
-0.488,12.207,31.25,7.812,-24.902
-8.301,14.16,33.691,3.418,-37.109
19.531,16.602,38.574,2.441,24.414
39.551,14.16,38.086,9.277,34.668
27.832,7.812,30.762,11.719,14.648
6.348,6.836,22.949,8.301,10.254
-7.812,8.789,21.484,3.906,6.348
20.508,8.301,22.949,1.953,21.973
43.945,10.742,26.367,1.465,64.453
29.297,9.277,25.879,4.883,29.297
10.254,1.953,24.414,7.324,9.766
-7.324,-0.488,32.227,0.488,29.297
11.23,0.488,38.086,3.418,43.457
35.645,-1.465,34.668,13.184,21.484
25.879,4.395,33.691,14.16,-8.301
12.695,9.277,34.18,12.695,3.906
-8.301,8.789,32.715,6.836,-23.438
3.418,12.207,31.738,4.395,-9.277
32.715,15.137,33.203,10.254,5.371
30.273,19.043,35.645,11.719,24.902
17.09,23.926,30.273,8.789,28.809
-0.977,25.879,26.855,3.418,32.227
11.23,28.32,30.273,1.953,50.293
41.504,22.949,24.902,6.836,19.531
38.086,15.137,19.043,9.277,35.156
23.438,11.719,18.555,12.695,63.965
1.953,10.742,18.555,9.766,26.855
10.254,12.207,19.531,7.812,11.719
49.316,15.625,22.461,19.043,53.711
47.363,20.02,21.484,24.414,30.273
29.297,22.949,19.043,22.461,-21.484
11.23,27.344,22.461,19.531,0.977
11.719,30.273,32.715,17.09,27.832
44.922,33.203,33.691,19.043,21.484
47.363,35.156,30.762,17.578,14.16
28.32,35.645,26.367,16.602,41.992
12.207,39.062,21.484,19.531,93.75
11.719,38.574,25.391,11.719,1.953
44.922,37.109,25.879,14.648,-39.062
47.852,35.645,24.414,20.508,11.719
28.32,33.691,26.367,19.043,27.344
7.812,33.691,24.902,19.043,65.43
-0.977,34.668,28.809,17.09,37.598
30.273,38.574,39.062,19.043,19.531
40.527,38.574,46.875,17.578,-11.23
27.832,34.18,44.922,15.625,-16.602
17.578,32.227,33.203,12.695,-29.297
4.883,32.715,33.203,2.93,-3.906
32.227,31.25,39.551,4.883,-7.812
48.828,28.32,40.527,14.16,-33.691
30.762,28.32,36.621,17.578,42.48
11.719,26.855,38.574,15.625,24.414
-2.441,26.855,42.969,7.324,5.371
26.367,26.367,40.039,9.277,32.227
47.363,22.949,38.574,18.066,-1.953
37.598,24.902,37.109,24.902,-3.906
27.344,25.879,33.203,24.414,12.695
9.766,27.344,31.738,14.648,16.113
28.809,33.691,38.086,10.254,47.852
52.246,35.156,40.039,14.16,72.754
34.18,33.691,39.062,15.625,51.758
12.207,33.203,37.598,12.695,82.52
-8.301,29.297,37.109,9.277,64.941
5.371,31.25,34.668,12.695,-7.324
36.621,32.715,27.344,17.09,58.105
25.879,34.668,24.902,12.695,76.172
2.93,38.086,26.855,8.301,36.133
-16.113,37.109,30.762,3.906,35.645
1.465,37.598,37.109,5.371,39.551
35.645,36.621,32.227,12.207,-0.488
26.367,40.039,27.344,14.16,3.906
12.207,41.504,26.855,16.113,78.125
-0.977,38.574,26.367,8.789,27.344
5.859,41.992,34.668,2.441,-14.648
41.992,44.922,37.109,7.812,11.23
44.434,47.363,36.621,10.254,7.812
27.832,43.945,37.598,10.742,38.086
8.789,39.062,36.621,12.207,46.875
12.695,40.039,37.598,11.719,7.812
48.828,42.969,39.551,14.648,8.789
51.27,47.852,39.551,12.207,55.176
29.297,48.828,31.25,2.441,26.855
7.324,50.781,25.879,-2.441,-25.879
10.254,52.246,37.598,-2.93,4.883
46.387,50.781,43.945,1.953,20.02
48.828,51.758,42.969,6.836,20.996
26.855,54.199,47.363,7.812,-0.488
9.766,56.641,41.992,5.859,-43.457
7.812,59.57,35.156,6.836,17.09
38.086,59.082,35.156,12.207,94.238
41.992,51.27,33.691,12.207,112.793
25.391,51.758,40.039,17.09,41.016
9.766,56.152,48.34,17.09,-50.781
0.977,59.57,43.945,8.789,-35.645
38.574,65.43,34.668,10.742,17.09
62.012,64.453,26.855,14.16,-5.371
42.969,62.012,30.762,14.16,16.113
23.438,57.617,38.086,7.324,75.684
10.254,55.664,37.598,-4.883,47.363
37.109,53.711,38.086,1.465,24.902
61.035,53.223,34.18,15.137,17.578
42.969,52.734,35.156,14.16,-17.09
21.484,50.781,34.668,14.16,5.371
7.812,49.805,32.715,17.09,103.027
30.273,48.34,37.109,20.996,36.133
51.758,44.922,30.273,23.926,-41.992
33.691,42.969,24.902,27.832,-10.254
20.508,41.016,27.344,28.809,-36.621
5.859,41.992,31.25,23.438,-44.922
21.484,42.969,28.32,20.508,25.391
51.27,44.434,26.367,23.438,52.734
46.387,48.34,32.227,32.715,97.656
35.156,47.852,28.32,39.062,68.359
13.672,49.805,25.879,32.715,23.438
21.973,50.781,29.785,26.367,53.711
57.129,48.828,31.25,33.691,42.969
56.641,46.875,32.227,38.086,46.387
40.527,45.41,31.738,34.18,28.809
14.16,46.387,29.297,23.438,2.93
17.09,46.387,26.855,13.672,37.598
51.758,44.434,27.344,16.602,88.867
50.781,44.434,25.391,21.973,67.871
32.715,43.945,19.531,22.949,60.059
14.16,42.48,23.438,20.996,74.219
15.137,43.457,30.273,15.625,40.039
40.527,45.41,29.785,13.672,28.32
40.039,46.875,26.367,17.09,19.531
25.391,42.48,28.809,20.02,23.438
13.184,34.668,31.738,16.602,56.641
13.672,34.668,33.691,14.648,11.719
42.48,42.48,41.504,23.438,-23.438
45.41,42.969,46.875,30.273,-17.09
24.414,41.016,44.922,28.809,21.484
3.418,40.527,35.645,20.02,80.078
2.93,39.551,36.621,13.672,31.738
37.109,38.574,44.434,19.531,-61.035
50.781,36.133,47.363,26.855,-28.32
36.621,35.156,49.805,30.762,3.418
20.508,34.668,44.434,29.297,0.977
11.719,30.762,42.48,20.02,14.16
36.133,26.367,47.363,19.531,0.488
45.898,22.949,42.969,18.066,6.836
25.879,19.043,37.598,11.23,3.906
16.602,19.043,39.551,19.531,10.254
6.836,24.902,41.016,17.09,43.457
28.32,31.25,40.039,5.371,12.207
51.27,35.156,36.133,10.254,-48.34
34.668,33.203,34.18,8.301,5.859
11.23,28.32,25.879,1.953,26.855
-3.906,34.18,25.879,-3.418,11.719
20.996,37.598,32.715,-0.977,38.574
44.922,36.133,33.203,8.301,-3.906
25.391,39.062,33.691,9.277,0.488
7.812,35.645,31.738,9.766,37.109
-2.441,30.273,30.273,9.277,38.086
15.137,33.691,39.551,6.836,15.625
38.086,35.156,45.41,11.23,6.348
23.926,32.715,42.969,14.16,23.926
4.395,27.832,40.527,12.695,1.953
-11.23,29.297,39.551,10.742,8.789
3.418,35.645,40.527,13.672,81.055
33.203,36.621,36.621,18.555,85.449
29.297,39.062,35.645,15.137,74.219
14.648,37.109,30.273,11.719,35.645
-3.418,34.668,27.832,10.742,-63.477
3.418,35.645,37.109,3.418,-57.617
35.156,34.668,37.598,-0.488,40.039
33.203,32.715,34.18,0,74.707
18.555,31.738,40.039,-2.441,13.184
-3.418,33.691,41.016,-9.766,10.742
-3.906,38.574,36.133,-11.719,40.039
30.273,37.109,40.527,-4.883,-5.371
32.227,31.738,42.969,-6.348,26.367
9.277,28.809,37.598,-13.672,20.508
-14.16,25.879,33.203,-20.02,-2.93
-16.602,28.32,30.273,-20.02,-1.465
14.16,34.18,23.438,-15.137,-25.391
17.09,35.156,20.996,-14.16,-23.438
-0.977,33.203,28.32,-11.719,42.48
-8.789,26.855,28.809,-6.836,52.734
-6.348,25.391,36.133,-6.348,22.949
28.32,33.203,47.852,0.488,53.223
46.875,34.668,43.457,11.23,38.574
33.691,35.645,36.133,14.648,-42.969
17.578,37.109,35.156,13.184,15.137
10.254,41.016,37.109,10.254,71.289
37.109,41.992,39.551,13.184,18.066
44.434,37.598,40.527,17.09,-0.977
30.273,37.109,41.016,17.578,-20.508
19.531,34.18,37.598,16.113,-55.176
3.418,33.203,38.574,6.836,7.324
22.949,37.109,45.41,-0.977,66.895
44.922,43.457,42.48,4.395,20.508
28.809,44.922,39.551,5.859,33.203
8.789,42.969,36.133,1.953,52.246
-5.859,40.527,36.621,0.977,13.184
14.648,40.039,39.551,0.977,28.32
39.551,37.598,40.527,0.977,39.551
23.926,34.668,44.434,-0.488,-1.953
2.441,33.203,39.551,0.977,59.082
-17.09,33.691,32.227,-0.488,33.691
-3.906,35.645,32.227,-0.488,-1.953
33.691,34.18,35.156,10.742,60.059
38.086,32.715,41.504,19.531,20.508
21.973,35.645,42.48,20.508,7.812
1.953,34.18,45.898,19.531,17.09
14.16,31.25,52.734,18.066,15.137
50.293,34.18,53.711,25.391,6.836
44.922,34.668,48.34,28.809,27.832
22.949,36.133,38.574,18.555,64.453
1.953,37.598,36.621,4.883,52.246
8.301,35.645,40.039,6.836,-12.207
46.875,37.109,42.48,18.066,-35.645
44.922,40.039,40.527,13.184,-20.996
19.531,33.691,35.645,8.789,17.09
-1.953,28.809,33.203,11.23,56.641
-5.859,33.691,31.738,6.348,33.203
25.391,41.504,37.109,11.23,23.926
32.715,43.945,39.551,17.09,49.316
16.602,43.945,34.668,13.184,56.641
-3.418,45.898,28.809,5.371,55.664
-7.812,48.34,28.809,0.977,19.043
31.25,50.781,35.645,11.23,-23.438
42.48,53.223,35.645,16.602,-4.883
22.949,56.152,32.227,11.719,3.906
8.301,58.594,21.973,4.883,45.898
3.418,62.988,20.02,5.859,22.461
38.086,67.871,29.297,15.137,-36.133
58.105,62.988,29.785,25.391,3.906
38.086,52.734,25.391,22.949,24.414
19.531,53.223,17.578,16.113,2.441
12.207,53.223,16.602,14.16,27.832
40.039,48.34,22.461,18.066,48.34
59.082,49.805,23.926,18.555,-26.367
44.922,51.27,24.902,17.578,-7.324
25.391,51.758,21.973,14.648,25.391
4.395,55.176,26.367,6.836,17.578
23.438,55.664,25.391,7.324,55.664
47.363,53.223,22.949,14.16,16.602
33.691,52.734,29.297,16.113,0.488
17.578,50.781,23.926,16.602,34.18
0.977,43.945,20.02,11.23,-14.648
16.602,45.898,21.484,10.254,-0.488
42.48,42.48,11.719,17.578,51.27
31.25,34.18,11.719,20.508,26.367
10.254,32.227,22.949,16.113,17.578
-7.812,27.344,32.227,12.207,-29.297
14.16,26.855,37.598,23.438,-52.734
44.922,31.25,41.992,28.32,0.977
27.832,32.227,45.898,13.672,-12.207
10.254,33.203,43.945,7.324,-21.484
4.395,35.645,42.969,13.184,32.715
16.602,39.062,47.363,15.625,23.438
42.48,41.504,47.852,15.625,5.371
35.156,35.156,48.34,11.23,15.625
20.508,28.809,43.945,8.301,-7.812
4.883,31.25,33.691,4.883,-36.133
4.883,36.621,30.762,-0.977,8.301
35.645,39.551,32.715,0,-24.414
37.109,37.598,31.25,5.859,-23.926
19.043,37.598,31.738,6.836,48.34
2.441,38.086,34.18,7.324,14.16
1.465,36.621,31.738,4.395,16.602
32.227,41.016,35.645,8.301,71.289
35.645,42.969,37.598,14.648,72.266
20.996,39.551,31.25,12.695,30.762
10.742,41.504,31.738,13.184,17.09
7.812,44.922,38.086,13.672,19.531
43.457,43.945,39.551,19.531,46.387
56.152,40.039,41.016,23.926,84.961
34.18,37.598,40.039,22.949,36.133
22.461,36.133,34.668,22.461,28.32
16.113,34.18,38.086,22.949,40.039
36.621,37.598,45.41,27.832,-13.184
54.199,41.504,41.504,31.25,-36.133
44.922,43.945,38.574,29.297,-2.441
27.344,42.48,37.109,20.996,54.199
14.648,40.527,33.203,17.09,24.902
43.945,40.527,33.203,24.414,-3.418
59.57,41.016,31.738,27.832,41.016
43.457,43.945,36.621,28.32,48.34
29.785,41.992,40.527,33.691,10.742
14.16,38.574,38.574,28.32,52.734
36.621,36.133,38.086,24.414,67.383
61.523,37.109,41.016,23.926,29.297
46.387,41.016,39.062,19.531,14.16
27.832,40.527,32.715,18.555,7.324
12.207,40.527,30.762,14.16,20.508
28.32,46.387,36.621,14.16,35.645
56.641,50.781,38.086,22.949,18.066
43.457,46.387,36.133,23.926,66.895
23.926,40.039,33.691,20.508,64.453
9.277,40.039,37.598,19.531,9.277
21.973,43.945,40.039,19.043,39.551
49.316,41.992,38.086,19.531,31.25
41.992,36.133,40.527,20.02,-7.812
25.391,31.738,35.645,15.137,-1.465
6.348,36.133,33.203,8.789,85.449
17.578,37.109,37.109,10.254,67.871
54.688,33.691,37.598,18.066,33.203
59.082,40.527,33.691,22.461,71.777
46.875,43.945,28.809,22.949,38.574
27.832,39.551,25.879,15.625,47.852
29.297,40.039,27.344,6.836,85.938
61.523,43.457,33.691,9.277,50.781
61.523,43.457,37.109,11.23,-2.93
37.109,39.062,41.992,10.742,-14.16
13.672,36.133,38.086,6.836,20.996
11.719,42.48,34.668,8.301,6.836
39.551,45.41,35.645,18.066,1.465
39.551,38.086,38.086,20.996,23.926
21.973,31.25,43.945,17.578,48.34
5.371,26.855,42.48,13.672,58.594
1.953,32.715,41.992,15.137,-14.648
33.203,42.48,42.48,16.113,2.93
37.598,42.969,41.504,10.254,56.641
20.02,41.992,32.227,6.836,68.848
5.371,40.527,21.973,9.277,96.191
-6.836,35.645,17.09,9.766,53.223
20.02,34.668,17.578,15.137,16.113
37.109,35.645,26.367,21.973,25.879
23.926,35.645,32.227,18.066,-22.949
6.348,38.086,27.344,16.113,-61.523
-6.348,36.621,25.391,10.742,-27.344
23.438,35.156,35.156,10.254,-31.25
40.527,36.621,37.109,15.625,38.086
21.484,34.668,31.738,10.742,92.285
5.859,27.832,25.391,8.301,43.945
-6.836,24.414,28.809,10.254,48.34
21.484,24.902,35.156,12.695,66.895
47.363,25.391,34.668,14.648,64.941
33.203,29.785,35.156,15.625,25.391
20.02,36.133,36.621,19.531,-31.738
8.301,36.621,34.668,20.508,22.949
23.438,38.574,35.645,14.648,74.707
47.852,40.039,34.18,15.137,60.547
42.969,41.016,33.203,20.508,26.367
24.902,39.551,31.738,15.625,-7.812
4.395,34.18,31.738,11.23,-14.648
21.484,39.062,43.945,14.16,14.648
50.781,45.41,49.316,18.066,-0.977
40.039,43.457,43.457,12.695,-0.488
23.438,42.48,37.109,8.789,38.086
7.812,41.016,29.785,5.371,-22.461
12.207,40.527,32.715,-3.418,-35.645
45.41,48.34,36.621,0,32.227
51.758,56.152,32.227,9.277,33.203
36.621,56.641,27.344,11.719,29.297
9.766,52.246,25.391,5.859,19.531
8.301,48.828,28.809,2.441,-2.93
46.387,46.875,29.785,10.254,-27.832
41.504,44.922,29.297,10.742,12.207
25.391,48.828,29.297,10.742,68.359
9.766,55.176,30.762,11.23,27.344
0,58.105,29.785,7.812,10.254
36.621,55.664,27.832,12.695,16.113
49.316,56.152,30.273,15.137,-13.184
31.738,59.082,30.273,12.207,0.488
11.23,52.734,24.902,4.883,-0.977
4.883,52.734,25.391,-1.465,1.953
35.645,58.594,28.32,-0.488,57.129
42.969,55.176,22.949,0,15.137
23.926,54.688,22.461,3.418,27.344
6.348,46.875,23.926,4.395,37.109
0.488,41.504,23.926,2.93,21.484
33.691,48.828,29.785,10.742,42.969
50.293,52.734,36.133,15.625,1.465
35.645,51.27,37.598,16.602,-39.551
18.066,52.246,41.016,15.625,-42.969
5.371,56.152,46.387,11.23,17.09
31.25,59.082,46.387,12.207,19.531
50.293,55.664,38.574,13.184,-20.996
35.156,50.781,38.086,12.695,14.16
20.996,49.316,38.574,12.695,18.555
8.301,52.734,39.062,6.836,41.504
25.391,55.664,43.457,2.93,61.523
43.457,50.781,41.016,8.301,14.648
29.297,45.898,39.062,10.742,28.809
15.625,44.922,44.434,12.207,-43.945
-2.93,42.48,50.293,7.812,-9.766
16.113,41.992,46.387,3.906,40.527
51.758,44.922,42.969,7.812,35.645
42.969,47.363,40.039,9.766,101.562
23.438,46.875,34.18,10.254,90.82
0,43.457,33.203,5.859,67.383
7.324,39.551,42.48,4.883,76.66
41.992,40.527,45.41,13.672,67.383
38.574,40.039,38.574,19.043,24.902
19.531,35.156,38.086,17.578,7.324
0.488,31.25,38.086,8.301,37.109
8.301,26.367,36.621,2.441,53.223
42.48,23.438,36.621,6.836,80.078
42.48,24.414,35.156,10.742,69.336
22.461,25.391,35.645,10.254,19.531
2.93,25.391,27.832,4.883,38.086
4.883,21.973,26.367,-0.488,8.789
39.062,21.973,33.691,4.883,-25.391
43.457,23.438,30.273,9.277,-30.762
30.762,26.855,27.832,11.23,0
16.602,26.367,27.832,13.672,-48.34
16.113,26.367,31.738,15.625,-41.016
48.828,35.156,31.738,20.508,21.973
49.805,37.598,24.902,18.066,53.711
31.25,31.25,21.484,17.09,46.875
18.066,26.855,17.09,24.902,-35.645
7.812,24.902,23.438,20.996,-30.273
32.715,32.715,37.109,16.602,14.648
48.828,38.086,41.016,26.855,29.297
37.109,39.062,41.504,33.691,71.777
15.625,36.133,37.109,29.297,38.574
3.906,29.297,39.551,20.996,-6.836
34.668,30.762,42.969,20.508,22.461
54.199,34.18,36.133,27.344,38.574
38.574,33.203,33.691,26.855,5.859
18.555,29.785,32.715,18.555,-13.672
8.301,30.762,29.297,17.09,-11.23
30.762,34.668,33.691,16.602,0.488
43.945,32.715,42.48,10.742,-0.977
27.344,28.809,40.527,6.836,-22.461
17.578,26.855,39.062,9.277,-12.207
4.395,29.297,42.48,10.742,42.48
20.996,36.621,40.527,11.23,7.324
42.969,35.156,37.598,15.137,30.273
28.809,33.203,38.086,16.113,51.758
13.184,36.621,33.691,12.695,5.371
-4.395,37.109,29.785,7.812,0
8.789,36.133,33.691,7.812,27.832
42.969,32.715,28.32,14.16,31.25
37.598,31.25,26.855,14.16,65.43
14.16,28.809,30.762,8.301,67.871
-2.441,28.809,26.367,6.348,23.438
11.23,33.691,28.809,3.906,-5.859
39.062,36.133,34.18,4.395,-12.695
33.203,33.691,35.645,7.812,-18.066
14.648,28.809,41.016,8.789,35.156
-7.324,24.902,42.969,5.371,10.254
-4.395,27.344,44.922,1.953,4.395
30.762,31.738,46.875,9.766,101.074
34.18,36.133,45.898,14.648,105.469
17.09,38.574,42.969,11.719,19.531
0.488,38.086,41.016,9.766,3.418
3.906,37.598,43.945,4.883,-7.324
30.762,40.527,45.898,1.953,-15.625
33.203,39.551,43.945,3.418,49.805
20.02,38.086,42.969,5.859,39.551
4.883,39.062,39.062,4.883,50.293
1.465,36.133,36.621,0.977,35.156
37.598,37.598,42.969,7.812,17.09
47.363,37.109,45.41,14.648,26.855
27.832,38.086,45.898,9.277,-17.09
10.254,41.504,39.551,10.254,15.137
3.418,39.062,38.574,11.719,-4.395
33.203,37.109,47.363,10.254,-2.441
48.828,36.133,46.387,19.043,62.5
37.598,34.668,41.992,22.949,40.527
15.137,31.25,38.574,13.672,-10.742
0.977,28.32,35.645,9.277,40.527
31.738,27.832,38.574,12.207,-23.438
45.41,27.832,39.551,16.602,-51.758
33.203,26.855,35.645,19.531,51.758
21.484,28.809,34.668,17.578,60.547
6.348,27.344,36.133,11.23,-9.277
27.832,25.879,37.598,7.324,-20.508
46.387,23.438,33.691,10.742,-4.395
29.297,19.531,28.809,10.254,-32.715
12.207,19.043,30.273,6.836,-52.734
-0.977,21.484,29.297,6.836,31.25
20.996,25.391,37.598,9.277,6.348
50.293,28.809,41.992,20.02,-8.301
42.969,27.344,35.156,26.367,-27.344
26.855,22.949,32.715,18.555,-92.285
6.836,20.02,34.668,14.16,-32.715
15.137,23.438,36.133,11.719,-97.656
42.48,29.785,37.598,14.648,-47.363
38.086,31.738,35.156,17.578,33.203
20.02,28.809,24.414,13.672,-9.277
-1.953,24.902,20.02,5.371,25.391
9.766,32.227,28.32,7.324,90.332
46.387,38.574,32.715,16.602,111.328
44.434,36.133,34.668,23.438,62.988
31.25,38.574,38.574,31.25,46.875
15.625,39.062,38.086,34.18,28.809
19.043,36.621,41.016,25.879,-7.324
46.875,34.18,45.41,22.949,12.695
47.363,40.039,42.969,24.902,59.57
32.715,52.246,35.156,22.949,78.125
13.672,54.199,29.785,18.555,93.75
7.812,48.828,31.738,10.254,100.098
29.297,47.852,38.086,6.836,57.617
33.203,41.504,28.809,6.836,38.574
23.926,37.598,25.879,8.301,48.828
10.254,40.527,37.598,6.836,41.016
7.324,44.922,42.48,5.371,22.461
36.621,46.875,40.039,9.766,7.324
44.922,45.898,37.109,17.578,28.32
29.297,41.992,33.691,20.508,67.383
8.301,38.086,31.25,15.137,69.824
-2.93,44.922,33.691,13.184,29.297
29.297,47.852,39.062,16.602,28.809
41.992,41.992,38.086,17.09,46.387
25.391,46.387,37.109,14.648,52.734
10.742,45.41,36.621,5.859,53.711
-1.953,34.668,28.32,-1.465,11.23
19.531,31.738,31.25,-0.488,2.441
34.18,34.668,36.133,1.465,12.695
24.902,35.645,27.344,3.418,14.648
13.672,37.598,21.973,7.324,-3.906
-5.371,36.133,24.902,1.465,42.969
13.672,36.621,31.25,-1.953,98.633
38.086,41.016,38.086,9.277,102.539
23.926,42.969,37.598,13.184,51.27
6.836,43.457,35.156,5.371,-8.301
-6.348,40.527,35.645,-3.418,-0.488
10.742,35.645,39.551,-2.441,48.34
35.156,36.133,35.156,0.488,66.406
23.926,36.133,31.25,-1.953,12.207
7.324,39.062,33.203,-2.93,15.137
-7.812,39.551,39.062,0.488,29.785
5.859,36.621,44.434,0.488,62.5
37.109,34.668,43.457,4.395,40.039
31.25,37.598,41.016,9.277,-4.395
10.742,42.969,41.992,7.812,60.059
-10.742,38.574,33.691,2.441,13.672
0,37.109,27.344,-0.977,19.043
32.227,43.945,28.809,1.465,42.48
32.715,45.898,28.32,4.395,13.672
13.184,41.992,28.809,0.977,31.738
-13.184,37.109,29.297,-6.836,17.09
-3.418,29.785,36.133,-9.277,18.066
33.203,32.227,41.016,-0.977,42.48
33.691,37.598,35.156,5.371,38.086
15.137,40.527,32.227,3.418,-10.742
-4.883,38.086,28.809,4.883,-2.93
-4.395,35.645,33.691,7.324,43.457
31.738,35.645,40.527,14.648,60.059
39.551,36.621,34.668,20.996,-14.16
23.926,37.598,38.086,20.996,-25.391
2.441,31.738,41.504,17.578,-25.391
-6.836,26.855,40.527,12.207,32.227
33.691,28.809,41.504,18.555,84.961
50.781,27.832,40.039,23.438,35.645
27.344,25.391,41.016,16.602,19.043
5.371,28.809,36.621,12.695,33.203
2.441,32.227,29.297,13.184,42.969
37.109,32.227,31.25,15.137,13.184
56.152,30.762,33.691,22.461,23.438
45.898,29.785,34.668,27.832,30.273
29.785,32.715,37.109,28.32,20.996
18.066,34.18,38.086,20.996,31.738
44.434,36.621,42.969,18.555,53.711
64.453,38.574,48.828,24.414,40.527
49.316,31.738,47.363,19.043,8.301
27.344,30.762,39.551,12.695,12.207
6.348,28.809,34.18,10.742,54.688
23.926,24.414,37.109,6.348,56.152
44.922,25.879,33.691,7.812,-10.254
30.762,27.344,33.203,7.812,25.879
14.648,23.926,35.645,5.371,61.523
-0.488,19.043,40.527,3.906,29.785
19.043,20.508,46.387,7.812,1.953
47.852,21.484,46.387,16.602,58.105
41.504,24.414,44.922,25.391,37.109
29.785,28.809,47.363,29.785,-25.391
8.789,25.879,37.598,24.414,-44.922
8.301,20.508,38.574,12.695,-50.781
31.738,18.555,42.969,14.16,34.668
29.297,19.531,39.551,20.996,7.324
6.348,18.555,40.527,9.766,-24.902
-11.23,19.531,31.25,3.906,3.418
6.836,24.902,30.273,8.789,24.902
32.715,24.902,34.668,5.859,-0.488
20.996,21.484,35.645,2.93,-3.418
1.465,21.484,36.133,-1.953,55.176
-15.625,22.461,27.344,-8.789,38.574
-5.371,26.855,30.273,-8.789,50.781
27.832,31.738,44.922,-1.465,40.527
28.809,33.203,47.363,6.348,5.371
14.16,27.832,40.527,6.348,16.602
-4.395,28.809,30.273,4.395,8.301
-4.883,34.668,30.273,1.465,27.832
26.367,35.645,36.621,-0.488,13.672
35.645,33.691,34.668,6.348,-27.344
25.391,32.715,32.715,9.277,10.742
9.766,33.691,35.156,10.742,44.922
3.418,31.25,36.621,9.766,49.805
37.109,28.32,38.574,11.23,28.32
50.293,27.344,38.574,19.043,13.672
32.715,27.832,37.109,18.066,-19.043
13.184,31.25,30.762,14.648,-23.926
5.371,33.203,26.855,14.648,-13.672
36.133,36.621,36.621,20.508,0
48.828,32.227,41.016,22.461,-26.367
31.738,26.367,37.109,20.508,-21.973
13.184,27.344,34.668,19.531,-4.883
0.488,30.273,31.738,14.16,6.836
23.926,31.25,28.809,14.16,27.832
40.527,34.668,30.762,15.137,15.137
25.391,41.016,32.715,13.184,28.32
8.301,40.039,30.762,14.16,21.484
-8.301,33.203,27.832,7.812,20.508
11.23,31.25,27.832,4.395,46.875
36.133,28.809,27.344,9.277,-21.973
24.414,26.855,26.367,3.906,-27.344
9.277,30.762,21.973,-1.465,41.504
-4.395,31.25,16.602,-1.953,37.109
15.625,27.832,20.996,5.859,21.973
47.852,29.297,21.973,16.113,-1.953
36.621,32.715,20.508,15.137,7.324
15.137,34.18,26.855,9.766,31.25
-4.883,32.227,25.879,4.395,26.367
11.23,35.156,24.902,0.488,67.383
48.828,42.48,26.367,4.883,84.961
44.922,39.551,24.902,16.602,16.113
25.879,35.645,27.832,17.578,22.949
4.395,35.156,20.996,9.277,40.527
13.672,39.551,17.09,12.207,-1.465
45.898,43.945,17.578,16.602,-4.395
41.504,48.34,18.066,15.137,27.832
21.973,50.781,20.996,13.672,35.645
3.906,44.434,22.461,8.301,47.852
7.812,40.039,24.902,3.418,61.523
38.574,46.387,24.414,11.719,32.715
41.992,46.875,22.461,19.531,28.809
27.344,41.504,32.227,16.113,25.879
6.348,38.574,36.621,11.719,-4.395
8.301,41.016,39.551,15.137,12.207
39.551,40.527,45.898,16.602,-1.465
38.574,41.504,43.457,18.066,-19.043
25.391,48.828,39.062,20.508,-5.859
12.207,52.246,32.227,16.602,47.363
3.418,49.805,30.762,9.277,68.359
31.25,48.828,36.133,6.348,24.902
38.086,48.34,35.645,11.23,24.414
18.555,44.434,33.691,9.766,-35.645
1.953,43.457,38.574,4.395,-6.836
-0.488,41.992,33.691,-1.465,44.922
28.809,44.434,31.25,-2.441,23.926
34.668,45.41,33.691,0.977,46.387
16.602,42.969,29.297,5.371,77.637
4.883,44.922,26.855,16.602,77.148
0,42.48,26.367,18.555,38.086
25.391,37.598,25.391,16.113,25.879
45.898,35.156,18.066,24.414,30.762
34.18,32.715,15.625,28.809,14.16
13.184,32.715,21.484,23.926,-17.09
0.488,34.18,23.438,19.531,41.016
23.926,33.203,29.297,15.625,38.574
47.363,34.18,33.691,22.461,2.93
37.109,32.227,30.273,25.879,-8.301
20.996,33.203,31.738,21.484,-19.531
9.766,36.621,31.738,21.484,-51.758
31.738,42.48,32.715,24.414,-58.105
54.199,41.016,37.598,22.949,0
38.086,33.203,40.527,17.09,16.602
18.555,26.855,39.551,10.254,64.941
3.418,25.879,33.691,7.324,87.891
18.066,29.297,31.738,8.789,46.875
51.27,38.086,36.133,10.742,31.25
47.363,40.039,33.691,11.719,37.598
25.391,36.621,29.785,6.348,52.246
7.812,36.621,29.785,4.883,92.773
17.578,34.18,34.668,5.859,49.805
38.086,26.367,36.621,6.348,-16.113
34.18,20.02,36.133,11.719,18.066
24.414,21.973,36.621,16.113,52.734
4.395,25.879,33.203,14.648,79.102
6.348,29.785,32.227,18.066,22.461
41.992,34.668,34.18,25.879,8.301
41.992,34.668,38.086,22.949,64.453
21.484,30.762,39.062,15.625,31.738
2.93,30.273,37.598,17.09,-8.301
6.836,29.297,37.109,17.09,34.18
42.48,29.785,39.551,16.602,27.832
51.758,33.691,36.133,20.996,-1.465
33.691,34.668,27.344,20.02,-5.859
9.277,31.25,20.508,10.742,-29.785
1.465,31.738,25.391,4.883,-35.156
29.785,29.785,34.668,4.883,-36.621
39.551,28.32,30.273,6.836,-44.434
25.391,31.25,23.438,6.836,-17.09
6.836,32.227,26.855,7.812,4.395
-4.395,26.367,29.785,3.418,-9.766
27.832,25.879,34.18,2.441,-28.32
44.922,30.762,39.551,11.23,24.414
26.367,29.297,34.668,10.742,82.031
12.695,30.273,23.926,5.859,-3.906
4.883,31.25,21.973,5.371,-18.555
24.414,28.32,23.438,7.812,3.906
38.574,30.762,19.043,9.766,7.812
28.809,33.203,20.02,12.695,27.344
8.301,27.344,22.461,9.277,40.039
-11.23,22.949,19.043,9.277,43.457
12.695,26.367,25.391,16.113,29.785
35.645,24.902,39.551,18.066,12.695
23.438,21.484,45.898,20.508,11.23
9.277,21.484,47.852,20.508,1.465
-5.371,22.461,42.969,16.602,11.23
16.602,27.344,41.504,14.648,11.23
44.434,31.738,44.922,16.602,57.617
37.109,29.785,41.016,21.484,60.059
20.02,26.367,39.551,14.648,22.461
-1.953,24.414,37.109,9.766,30.762
11.719,28.809,38.086,10.254,40.527
46.875,32.715,37.598,12.695,25.391
43.457,32.715,38.086,16.113,37.598
22.949,34.668,34.18,11.719,61.035
2.441,29.297,25.879,5.371,7.812
7.324,20.508,33.203,2.441,8.301
38.086,20.996,39.062,12.207,50.781
34.668,24.414,36.621,18.066,2.93
14.16,27.344,45.41,12.207,0
-1.953,29.785,43.945,12.695,0.488
3.906,29.785,35.156,18.066,21.973
39.062,30.273,37.109,22.949,52.734
41.992,28.32,34.668,23.438,12.695
27.832,25.879,29.785,23.438,-9.766
7.812,25.391,27.832,18.066,48.828
3.418,21.484,24.902,9.277,34.668
35.645,24.414,34.668,13.672,-27.344
40.039,26.367,41.016,20.996,25.391
22.461,23.926,37.598,14.648,47.852
1.953,25.391,37.598,9.277,69.336
0.488,24.902,34.668,10.742,62.5
34.18,23.926,34.668,14.648,23.926
39.551,22.461,39.551,17.09,64.941
21.973,22.949,34.668,12.695,55.176
6.836,26.855,26.367,10.254,29.785
0,32.227,26.367,7.812,33.691
28.809,39.062,30.273,6.348,-31.738
41.992,40.527,23.438,5.859,19.531
28.809,36.621,18.555,4.395,64.453
14.648,36.133,25.391,7.812,40.039
-0.977,33.203,28.809,5.859,65.918
24.414,33.203,32.227,4.395,52.734
47.363,33.691,33.691,11.23,48.828
31.738,32.715,33.203,11.23,55.664
16.113,33.691,29.297,6.348,70.312
3.906,33.203,23.438,8.301,30.762
27.344,33.203,29.297,14.648,16.113
48.828,31.25,36.621,18.066,66.406
30.762,29.785,38.574,17.09,91.309
16.113,31.25,45.898,13.672,68.359
1.465,28.32,46.875,12.207,42.48
18.066,29.297,50.293,17.09,46.875
49.805,36.133,59.57,21.973,30.762
42.969,37.109,52.734,19.531,-9.277
20.508,36.621,45.41,10.742,-41.504
2.441,32.715,47.363,7.812,11.719
17.09,26.855,48.828,11.23,41.016
46.387,23.926,48.828,15.625,-29.785
39.551,21.484,49.805,15.625,-36.133
22.461,22.949,45.898,14.648,-18.555
2.441,23.926,39.062,7.812,-71.289
10.254,25.879,40.039,6.348,-37.598
48.828,28.32,41.992,19.043,49.316
49.316,25.879,40.039,26.855,46.875
30.762,23.926,43.457,22.461,46.387
11.719,24.414,41.992,12.695,36.621
12.695,24.414,35.156,11.23,0.977
40.039,21.973,33.203,15.625,-3.418
37.109,21.484,31.738,10.742,76.172
16.602,27.832,28.32,4.883,60.547
-0.977,31.738,26.855,2.93,28.32
-0.488,33.203,24.902,0.488,63.965
26.855,34.18,29.297,-3.906,44.922
36.133,31.738,28.809,-2.441,59.57
23.438,32.715,24.902,3.906,38.086
-3.906,35.156,22.949,-0.977,20.996
-13.672,33.203,20.02,-5.859,39.062
19.531,31.25,23.926,3.906,-16.602
31.738,34.668,27.344,9.766,-2.93
20.996,32.715,25.879,13.672,18.066
12.207,31.25,21.973,17.578,-11.719
-1.465,33.203,22.949,11.719,-31.738
27.344,29.297,33.691,10.742,23.438
50.293,27.832,30.273,12.207,104.98
35.645,35.645,22.949,12.695,59.082
15.137,38.086,21.973,11.719,-5.859
3.418,33.203,21.973,11.23,-26.367
28.32,38.574,24.902,20.02,33.691
47.363,39.062,20.02,23.926,-19.043
34.668,36.621,20.02,24.414,-50.781
17.578,38.086,23.926,22.461,53.711
4.883,35.156,21.973,18.066,24.414
25.391,32.227,28.809,13.672,14.16
50.293,29.785,31.25,15.137,0.977
40.039,26.367,23.926,18.555,-53.223
25.879,24.902,23.926,13.672,37.109
11.23,28.809,24.414,8.789,63.477
25.391,30.273,27.832,5.859,7.812
50.293,30.762,33.203,2.441,3.906
34.668,30.273,35.645,6.348,-22.461
9.766,28.32,36.133,5.371,-11.719
-7.324,25.879,35.645,-0.488,22.461
10.742,28.32,36.133,2.441,-4.883
41.504,32.227,38.086,9.277,-19.531
32.715,32.715,35.156,11.719,-58.594
19.531,37.109,30.273,14.648,-85.938
5.371,38.574,27.344,16.602,-75.195
18.555,42.969,26.367,19.043,-8.789
53.223,46.875,26.367,21.973,-41.504
51.27,45.41,25.391,23.926,-81.543
35.645,44.434,29.297,26.855,-3.418
15.625,44.922,26.367,24.414,42.48
12.207,42.969,21.973,20.02,18.066
41.016,41.504,28.809,17.578,-48.828
44.434,45.41,36.133,19.531,-6.836
26.855,44.434,33.691,17.09,40.527
3.418,38.086,30.273,12.207,34.668
1.465,37.598,33.691,9.277,67.383
36.621,37.598,32.715,5.859,47.852
48.828,38.086,30.762,10.742,66.895
31.738,37.109,30.762,8.301,46.387
9.766,35.156,27.832,-5.859,-14.16
3.418,33.691,27.344,-6.348,3.906
39.062,35.645,35.645,5.371,28.809
58.105,35.645,37.598,13.672,-14.648
38.574,36.621,35.156,12.207,24.414
13.184,38.574,29.785,4.883,46.387
0,36.133,22.949,1.465,0.977
25.391,37.598,30.273,4.395,8.789
40.527,40.527,34.18,8.789,26.367
20.02,33.691,24.414,3.418,69.336
1.953,24.902,18.066,-0.977,52.246
-2.93,25.391,18.555,2.93,-4.395
24.902,32.227,21.484,6.348,17.578
49.316,36.621,19.531,7.324,45.41
41.016,37.598,18.555,13.184,33.691
25.879,36.621,20.02,17.09,70.801
15.137,33.691,17.578,17.578,4.883
31.738,36.133,23.438,17.578,-16.602
53.223,38.086,26.855,22.949,37.598
40.039,31.738,20.02,21.973,24.414
18.066,32.227,19.043,10.254,-14.16
-4.883,34.668,20.02,-0.977,-18.555
10.254,31.25,18.066,3.418,64.941
45.898,37.109,22.461,13.672,93.262
36.133,35.645,21.484,12.695,39.062
20.02,27.344,19.043,12.207,23.926
5.371,28.32,19.531,10.742,62.988
11.719,29.297,17.09,6.348,68.359
41.992,31.25,19.531,11.719,33.691
35.156,34.668,22.461,11.719,38.086
18.555,36.621,21.484,9.766,41.016
1.953,31.738,16.113,6.348,50.781
5.859,25.879,17.09,3.418,59.57
36.133,25.879,28.32,12.695,58.105
33.691,26.367,30.762,17.578,114.746
18.555,27.832,29.297,16.113,58.105
1.465,29.785,34.668,17.578,-59.57
3.906,28.809,35.645,20.508,-19.531
31.738,29.785,36.621,20.02,-15.137
31.738,28.32,41.016,20.02,40.527
19.043,25.879,39.062,26.367,105.469
0.488,26.855,40.039,25.391,39.551
-8.789,28.809,39.551,21.484,-27.344
22.461,31.25,42.969,22.461,-27.832
36.621,35.645,47.852,28.32,-30.273
22.949,38.086,46.875,28.32,-64.453
3.906,32.715,44.922,22.461,-22.461
-4.395,31.25,40.039,16.602,9.766
23.438,31.25,39.551,19.043,3.418
32.715,27.832,43.945,21.973,-25.391
18.555,28.32,45.898,19.531,-33.691
4.395,34.668,43.945,20.996,24.414
-9.277,34.18,39.551,20.508,32.715
15.625,32.227,37.109,17.578,6.836
35.156,33.691,31.25,16.602,35.156
23.926,36.621,29.297,20.508,42.48
7.324,38.574,30.273,18.066,54.688
-10.742,33.691,20.508,8.301,25.879
9.766,31.25,16.113,12.207,-19.043
35.156,37.598,20.02,15.137,10.742
27.344,44.922,25.391,13.672,55.664
14.16,52.734,31.25,17.578,51.758
3.418,47.363,27.832,21.973,10.254
20.508,41.504,30.273,23.438,51.758
49.805,45.41,39.062,26.367,56.152
45.41,49.805,40.039,30.273,3.418
26.367,49.316,35.156,26.855,62.988
14.648,49.316,27.344,29.785,34.668
34.668,52.734,31.738,36.133,-12.207
61.523,53.711,39.062,38.086,39.062
54.688,53.711,37.109,37.109,49.805
39.551,54.199,35.156,29.785,8.301
20.02,50.293,32.715,25.391,7.324
24.414,42.48,27.344,21.484,30.273
45.41,40.039,32.715,20.996,42.969
35.156,39.062,34.18,15.625,55.176
14.16,35.156,26.367,4.395,43.457
-6.836,32.227,25.391,-2.441,44.434
-3.418,33.691,26.855,-6.348,54.199
23.438,36.621,23.926,-7.812,3.906
23.926,36.621,21.484,-4.395,-26.367
8.301,33.691,20.996,-2.93,-11.719
-10.742,30.762,21.484,-5.859,2.441
-5.859,29.297,27.832,-3.906,-29.785
22.949,28.32,34.668,-5.859,-22.461
24.902,31.25,34.668,-7.812,19.043
10.254,33.691,31.738,-6.836,8.301
-6.836,33.203,28.32,-11.23,26.855
-0.488,35.645,28.32,-7.324,56.152
35.156,36.133,32.227,0.977,58.105
39.062,37.109,30.273,4.395,95.703
29.297,36.621,24.902,10.742,92.773
11.23,32.227,23.926,9.277,88.867
0.488,31.25,22.461,5.859,83.496
35.156,35.156,20.508,12.695,38.574
51.758,38.574,17.578,14.16,-7.324
31.738,38.574,18.555,4.395,-3.418
17.09,32.715,18.066,2.441,-7.812
8.789,23.926,15.625,5.859,18.555
27.344,25.879,18.066,3.906,58.594
47.852,31.25,17.09,8.789,49.805
39.062,29.297,18.555,15.625,29.785
19.531,28.809,22.949,13.184,54.688
2.93,25.391,22.949,14.16,79.102
21.973,25.879,33.691,18.555,21.484
43.945,28.809,34.668,14.16,-16.113
29.297,24.902,17.578,17.578,14.16
7.324,25.391,14.16,16.113,39.551
-10.254,26.855,13.672,9.766,23.926
5.859,27.832,18.555,7.812,56.641
26.855,34.18,27.344,6.836,41.992
14.16,32.227,24.902,6.348,11.719
-1.953,23.926,26.367,3.906,13.184
-17.09,21.973,27.344,4.395,2.93
1.465,26.855,25.391,5.859,24.414
28.32,26.367,27.344,5.371,27.344
19.043,24.414,32.227,4.883,26.367
5.371,26.367,32.715,3.418,49.805
-14.648,28.809,26.855,1.465,1.953
-1.953,35.156,25.391,2.441,-28.32
36.133,35.645,28.809,5.371,1.953
31.738,31.738,23.926,4.883,70.312
17.578,32.227,15.137,6.836,81.543
-0.977,33.203,19.043,6.836,25.391
3.418,34.18,24.902,3.418,9.766
37.598,40.039,26.855,6.348,12.207
37.598,42.48,28.809,10.254,5.371
26.367,42.969,29.785,14.648,-23.926
10.742,47.852,28.809,15.625,13.184
8.301,45.898,21.484,11.719,39.551
36.133,40.039,20.02,12.207,10.742
35.645,36.133,18.066,14.16,-3.906
23.926,35.156,15.625,15.137,18.066
13.672,37.598,13.672,14.16,23.926
3.906,35.645,16.113,7.812,40.527
27.832,29.785,19.531,2.93,112.305
37.109,32.715,17.09,4.883,93.262
17.09,35.645,20.996,4.395,32.715
-5.859,35.156,25.879,-0.977,47.852
-10.742,36.621,23.926,-1.465,35.156
21.973,37.598,27.344,1.953,22.949
45.898,41.504,33.691,9.766,44.434
30.762,44.434,32.227,14.16,16.602
7.324,43.945,27.832,10.254,21.484
-1.465,42.969,22.461,8.301,12.695
24.414,37.109,19.531,13.672,15.625
51.758,41.016,23.926,21.973,26.367
45.41,40.527,26.367,25.391,28.809
24.902,31.738,25.879,20.508,21.484
9.277,30.273,23.438,17.09,44.434
31.25,31.25,23.926,12.207,99.609
54.688,36.133,23.438,9.277,5.859
40.039,41.504,20.508,16.602,-9.766
26.367,45.41,19.531,22.461,-21.973
12.207,43.945,15.137,20.02,-38.574
22.461,37.598,14.648,13.184,2.93
49.805,40.527,19.531,14.16,5.859
45.41,47.363,23.438,20.02,41.016
23.438,47.363,26.855,15.625,22.461
2.441,45.898,23.926,11.719,12.207
18.555,48.828,24.902,14.648,17.09
49.805,50.293,33.203,23.438,50.781
39.062,44.434,35.156,20.508,44.434
20.02,41.504,33.691,12.695,53.223
8.301,41.016,31.25,8.301,73.242
14.16,36.133,38.086,8.789,-22.461
36.621,34.18,42.969,13.184,-19.531
34.668,33.691,36.133,8.789,-5.859
17.578,37.109,28.32,3.418,19.043
-3.418,39.062,20.996,3.906,71.777
4.395,35.156,22.949,8.301,-50.293
37.598,32.227,22.949,5.371,-59.57
35.156,34.668,19.531,9.277,27.832
21.484,34.668,20.508,16.113,39.551
10.254,35.645,17.09,13.184,43.457
5.371,40.527,20.996,10.742,72.266
36.621,45.41,29.785,13.184,76.66
41.504,43.945,29.297,12.207,29.785
21.484,43.457,28.809,10.742,-14.648
2.441,43.457,32.715,4.883,-9.277
-8.789,41.016,32.715,-1.465,40.527
16.602,42.48,31.25,-1.465,53.223
30.273,47.852,35.645,4.395,24.902
20.508,49.316,35.645,9.277,49.805
7.812,47.363,32.715,11.23,29.785
0,46.387,30.762,10.742,18.066
25.879,44.434,30.762,7.812,35.645
42.48,45.41,32.227,13.672,20.02
27.832,45.898,30.762,17.578,42.48
14.16,43.457,32.227,18.555,13.672
5.859,42.969,35.645,19.531,4.883
33.691,44.922,37.598,22.461,37.598
59.082,44.434,36.621,29.297,57.617
43.457,42.969,31.25,31.738,72.754
18.555,41.016,20.996,22.949,69.336
2.441,41.504,14.16,17.09,49.805
26.367,41.016,17.578,19.043,21.484
44.922,35.645,21.973,17.09,-0.488
30.762,33.203,20.02,14.648,-19.043
15.137,32.227,16.113,9.766,-37.598
-7.324,30.273,18.555,3.418,-6.836
6.348,28.809,20.508,1.953,13.672
37.109,32.227,18.555,9.277,10.254
29.785,36.621,20.508,10.742,32.227
13.672,39.062,26.367,7.812,36.133
-3.906,37.109,22.949,7.324,29.297
11.23,33.691,17.578,8.301,24.902
42.969,34.18,22.949,11.23,0.977
36.621,36.133,24.414,18.066,44.922
23.926,36.621,23.438,20.02,16.602
7.812,34.668,28.809,15.137,-1.465
14.16,34.668,30.762,17.578,-9.277
51.758,35.645,34.18,25.391,-34.18
59.57,37.598,33.691,27.344,26.367
50.293,37.598,32.715,27.344,39.062
33.203,35.645,38.086,23.438,7.324
39.551,36.621,44.922,24.414,11.23
69.336,40.527,53.223,24.414,39.551
63.965,45.41,59.082,21.484,46.875
41.016,48.34,53.711,23.926,82.52
17.09,45.898,47.363,24.414,83.984
6.836,44.434,45.41,21.973,65.918
33.203,46.387,41.992,22.949,43.945
37.109,46.875,36.133,20.508,6.836
19.043,46.387,30.273,11.719,3.906
1.953,46.387,29.297,5.371,-6.836
-1.953,43.945,25.879,8.301,14.16
30.273,44.922,28.32,9.766,-19.531
41.016,44.434,27.832,10.254,-53.711
31.25,39.062,20.508,18.066,-19.531
24.902,38.574,15.625,20.02,-5.859
18.555,39.551,20.02,23.438,16.602
38.086,35.156,32.715,28.32,-24.414
49.805,36.621,38.086,30.762,6.348
40.039,37.109,37.109,37.109,50.781
25.879,34.18,40.039,38.086,2.93
16.602,32.227,38.574,35.645,6.348
39.551,33.203,35.156,33.203,29.297
51.758,33.203,34.668,30.273,46.875
35.156,32.715,30.273,29.297,37.598
17.578,38.574,26.367,23.926,33.203
0,37.598,23.438,16.113,44.434
19.043,35.645,25.879,18.555,56.641
42.969,35.645,31.25,20.996,24.902
26.855,34.668,33.691,17.578,15.137
12.207,37.109,33.203,15.137,6.836
1.465,37.109,26.855,11.23,30.273
19.531,35.645,24.902,12.695,62.012
49.316,37.109,32.227,18.066,13.184
42.48,38.574,34.668,20.996,6.836
25.879,39.062,32.715,20.996,22.949
12.695,37.598,35.156,17.578,-23.438
24.902,31.738,35.645,11.23,-17.09
45.898,30.762,33.691,5.371,24.902
38.086,32.715,33.203,7.324,-18.555
25.391,29.785,29.297,8.789,-37.109
9.277,33.691,24.902,7.812,-7.324
16.113,33.691,26.367,12.695,5.371
47.363,27.344,31.738,17.09,17.578
38.086,20.508,27.832,11.23,-11.23
18.066,16.113,31.738,10.742,62.988
1.465,12.207,34.18,11.23,42.48
0,10.254,30.762,5.859,-35.645
28.32,14.648,29.297,7.812,22.461
30.762,22.461,25.879,9.766,18.555
18.066,26.367,20.996,10.742,-21.484
0,26.367,20.508,7.324,-48.34
-5.371,24.414,20.02,3.906,1.953
22.949,25.391,19.531,4.883,50.781
27.832,27.344,23.438,8.789,33.691
16.113,24.902,23.438,9.766,15.625
8.301,27.344,17.578,10.254,-10.254
0.488,28.32,16.602,12.207,-14.648
25.391,26.367,20.996,13.184,25.879
39.551,29.297,15.137,12.695,32.227
29.297,33.691,8.301,14.648,-6.348
13.672,34.18,9.277,13.184,-15.137
1.465,30.762,6.348,10.742,33.691
25.879,29.785,6.836,14.16,33.691
39.551,30.273,17.09,18.066,33.203
25.391,23.438,18.555,17.578,55.664
10.742,19.043,15.137,14.16,4.883
-5.859,22.949,22.461,13.672,-29.297
18.066,29.297,30.273,17.09,9.277
42.969,33.691,31.738,19.043,21.484
25.879,31.25,32.715,18.555,-13.184
6.836,29.297,31.738,17.09,13.184
-6.836,31.25,27.832,17.09,10.742
14.16,35.645,25.391,19.531,51.27
31.738,39.062,28.32,21.484,95.215
19.531,40.039,31.25,27.832,6.348
8.301,41.992,33.691,25.879,-8.789
-10.254,45.898,32.715,17.09,46.875
6.836,49.316,30.762,19.531,27.344
39.551,52.734,37.598,25.391,-30.273
30.762,54.199,39.062,22.949,-10.254
12.695,54.688,28.809,23.438,-23.926
-1.465,52.734,30.762,25.391,-51.758
12.207,51.27,31.25,23.438,21.973
45.898,51.758,24.902,22.949,4.883
41.992,51.27,18.555,20.996,46.387
27.832,50.781,20.508,22.461,68.848
8.789,50.293,27.832,22.461,61.035
13.184,46.875,23.926,20.996,19.531
47.363,46.387,24.902,21.484,-33.691
43.945,48.828,25.879,21.973,-3.906
27.344,48.828,24.414,20.508,6.348
12.207,50.293,26.855,17.09,19.043
14.648,47.852,27.832,19.043,27.832
48.828,47.852,29.297,24.414,55.176
54.199,51.27,26.855,28.32,6.836
31.25,48.34,22.949,23.926,8.789
6.348,41.992,21.973,15.137,24.902
-1.465,38.086,19.531,10.254,15.137
28.32,43.457,20.02,10.254,12.207
37.109,51.758,26.367,14.648,-45.898
20.508,47.852,33.203,17.578,-5.371
2.93,36.133,29.297,15.625,57.129
0.488,34.668,24.902,15.625,72.754
31.25,40.039,31.738,20.02,82.031
40.039,39.551,33.203,18.555,28.809
25.391,36.133,27.344,17.09,0.488
14.16,35.645,23.926,15.137,9.277
3.418,35.645,22.461,6.836,42.48
25.391,31.738,22.461,8.301,88.867
40.039,34.668,30.762,15.137,57.617
20.508,38.574,34.18,14.648,-10.254
3.418,40.039,26.855,7.324,-40.527
-8.301,43.945,22.949,3.418,44.434
16.602,45.41,25.879,7.324,64.941
39.551,50.781,26.855,12.695,-2.441
25.879,55.176,26.367,14.648,-22.461
7.324,55.664,26.367,10.742,14.648
-7.324,52.734,24.902,9.766,17.09
9.766,49.805,29.297,15.625,31.25
29.785,51.758,36.621,18.555,67.383
20.508,46.387,35.156,20.02,75.684
10.254,45.898,28.809,22.949,26.367
-1.465,50.781,30.273,20.508,-42.969
16.113,47.852,32.227,21.484,-30.762
45.898,47.852,31.738,25.391,25.879
35.156,44.922,30.762,25.879,-22.461
17.09,40.527,31.25,25.391,-67.383
-0.977,42.969,30.273,20.508,-35.156
12.207,45.898,28.809,24.902,19.043
45.41,45.898,30.273,34.18,9.277
39.062,40.527,27.832,30.762,-50.293
15.137,31.25,27.832,20.508,-1.465
-4.395,28.809,26.855,12.695,34.668
3.418,30.762,28.809,10.254,43.457
33.203,34.668,36.621,13.184,53.223
30.762,40.039,33.203,13.184,0
16.113,40.039,25.879,13.184,-24.902
-2.441,37.598,20.508,8.301,2.93
1.953,28.809,20.996,7.324,15.625
37.109,20.996,26.855,10.742,18.555
40.527,21.484,24.902,14.16,-1.465
26.855,23.926,20.508,15.625,36.621
10.254,27.832,15.625,12.207,37.109
7.812,32.715,21.484,16.602,13.672
40.039,38.086,35.645,21.484,62.988
46.875,38.086,41.016,19.531,74.707
29.785,35.156,34.18,16.113,80.566
16.113,36.621,32.715,18.066,62.5
8.789,33.691,32.715,20.996,46.387
33.203,33.203,28.809,22.461,53.223
47.363,39.062,29.297,24.414,33.691
34.18,40.039,31.738,22.461,14.648
15.625,38.086,30.762,15.625,28.809
-0.488,35.156,29.785,15.137,36.621
24.902,32.227,35.645,18.555,-37.109
43.945,36.621,37.109,19.043,4.883
35.156,36.133,32.715,21.484,47.363
18.066,33.691,29.297,21.484,1.953
-5.371,32.227,29.785,15.625,30.273
15.625,30.273,31.25,17.578,57.617
42.48,33.203,31.25,21.484,35.645
28.32,32.227,31.25,20.508,18.555
12.695,32.715,31.738,19.043,21.973
-3.418,32.715,27.832,17.09,2.441
16.113,29.785,29.785,22.461,-14.648
43.945,26.855,35.156,25.879,-29.297
33.691,24.902,35.156,29.297,-3.906
16.602,28.809,35.645,32.227,36.621
-3.906,35.645,37.109,29.297,-8.789
12.207,31.25,35.156,30.762,50.293
41.016,28.32,38.086,27.344,90.332
35.156,29.785,36.621,23.438,58.594
20.996,32.715,29.785,23.438,88.867
0.977,32.715,32.227,21.484,58.594
8.789,29.785,37.109,20.02,43.945
42.48,27.344,40.527,21.973,-3.418
36.621,27.344,40.039,24.902,-38.574
17.09,29.297,41.016,23.438,10.742
0.488,26.367,44.922,18.066,10.742
6.836,25.391,49.805,13.184,13.184
42.48,31.738,48.828,15.625,38.574
41.992,39.062,43.945,19.531,8.789
19.531,38.574,39.551,14.648,20.02
-1.953,39.551,36.133,6.836,72.266
-2.441,41.016,36.621,5.371,41.016
29.785,38.574,36.133,8.789,-18.555
36.133,37.109,32.715,10.254,-3.906
26.367,35.156,30.762,14.648,34.668
10.742,29.785,37.598,17.578,47.363
3.418,28.32,40.039,14.16,29.785
38.086,30.273,38.086,20.02,15.137
47.363,34.18,45.41,25.879,8.789
28.32,31.738,51.27,20.02,-2.441
7.324,30.762,48.828,9.277,-23.926
-3.906,31.25,44.922,2.93,17.578
31.738,28.809,47.852,8.301,52.246
47.363,34.18,51.27,15.625,38.574
28.809,35.156,48.34,19.531,51.27
7.324,31.738,47.363,17.578,36.621
-6.348,27.344,42.48,12.207,36.133
24.902,29.297,45.898,16.602,28.32
47.363,33.203,54.199,22.949,26.367
35.156,29.297,49.316,22.949,23.926
19.043,26.855,43.945,19.531,83.984
4.883,26.855,41.016,14.648,77.148
29.297,29.785,41.992,15.625,7.812
52.246,32.715,41.016,14.16,3.418
34.668,28.809,43.457,6.836,0.488
15.625,21.484,48.828,0.488,20.508
0,20.02,47.852,-1.465,8.301
22.461,22.461,53.711,5.859,10.742
50.293,22.949,54.688,11.23,26.367
33.203,22.461,45.41,6.836,6.348
15.625,22.949,38.086,5.859,13.672
2.93,26.367,31.738,8.789,32.227
18.066,29.297,33.691,9.277,12.207
41.016,27.344,39.551,11.719,10.742
35.156,27.344,38.086,15.625,41.016
19.043,30.273,36.133,14.648,53.223
-0.488,31.25,33.203,9.277,28.809
10.742,33.691,27.344,11.23,49.805
41.016,32.227,25.879,15.625,105.469
34.668,29.785,27.344,13.184,64.941
22.461,28.32,27.832,15.625,14.16
7.812,29.785,31.25,18.066,-14.648
11.23,30.762,37.598,19.043,-27.832
41.504,30.273,37.109,23.438,-47.363
41.504,31.25,29.785,25.391,41.016
28.32,30.273,30.273,25.879,60.059
9.766,27.344,32.715,24.414,19.531
5.859,25.391,27.832,21.973,28.809
37.598,24.902,31.738,18.555,13.184
38.086,27.832,39.551,17.09,-5.859
20.508,34.668,32.227,12.695,17.578
3.906,34.668,27.344,7.812,6.348
-3.418,33.691,32.715,10.254,6.348
21.484,35.156,38.086,9.277,48.34
25.879,35.645,38.086,4.395,-4.395
14.16,37.109,35.645,6.348,-52.246
0.977,37.598,37.598,7.812,19.043
-7.812,35.645,43.457,3.906,65.43
28.809,30.762,46.875,10.254,20.996
47.852,33.203,48.34,15.137,40.039
34.18,35.645,43.457,9.766,7.324
22.461,36.621,35.156,2.441,-40.527
11.23,39.062,31.25,-1.953,27.344
38.086,40.039,25.879,1.953,9.277
65.918,42.48,25.391,10.742,-35.645
51.27,43.457,35.645,16.602,16.113
25.391,41.504,41.504,20.996,2.441
8.301,41.504,41.992,23.926,3.418
28.809,41.016,44.434,24.902,4.883
49.316,43.945,45.898,18.066,21.973
37.598,45.41,37.109,14.16,55.176
26.367,42.969,27.344,16.602,43.945
9.277,44.434,33.691,13.184,19.043
20.02,41.504,36.133,9.277,-11.23
47.852,38.086,38.086,13.184,19.043
39.551,38.086,43.945,19.043,18.066
17.578,37.109,45.898,15.137,41.504
-0.977,38.574,43.457,6.836,74.707
14.16,37.598,42.48,10.742,48.828
49.805,34.668,39.062,21.484,8.789
46.387,34.668,30.273,27.344,29.297
27.832,38.086,27.344,26.367,78.125
9.766,40.039,20.508,20.996,81.543
13.184,37.109,15.625,17.09,13.184
42.969,37.109,24.902,21.484,30.762
41.504,36.133,26.855,20.02,5.371
23.438,34.668,27.832,15.137,-17.09
3.418,30.762,38.086,11.23,3.418
4.883,24.414,34.18,5.859,37.109
34.668,23.926,25.391,4.883,54.688
34.668,27.344,25.391,10.742,15.625
24.902,26.367,16.113,19.531,2.93
6.348,27.344,12.695,15.137,36.621
-2.93,28.809,13.672,10.254,75.684
29.785,23.926,19.043,18.066,-11.719
33.203,24.414,32.227,18.555,-38.086
19.043,30.762,33.203,17.578,10.742
5.859,34.18,30.273,12.207,0.488
2.93,34.18,31.25,7.812,-10.742
36.133,33.203,29.785,13.672,-6.836
44.922,34.18,24.902,14.648,66.406
26.367,35.156,27.344,14.648,81.543
11.719,35.645,28.809,16.113,44.434
3.418,37.598,27.832,15.137,-11.719
31.738,40.527,37.109,17.09,3.906
47.363,43.945,41.016,17.578,8.789
31.738,43.457,41.504,17.09,23.438
17.09,39.062,38.086,11.719,24.414
0.488,34.18,37.598,6.348,-11.719
21.484,34.668,35.645,11.719,14.16
42.48,37.598,30.762,16.602,55.664
29.785,35.645,28.32,18.066,6.836
11.719,37.598,31.25,16.602,-21.484
-6.348,40.039,31.738,14.16,33.203
19.043,43.945,31.738,20.508,77.148
50.781,43.457,32.227,23.926,39.062
38.574,41.504,33.203,18.555,-11.23
20.02,41.992,36.133,14.648,32.715
1.465,38.086,31.738,14.16,24.414
20.996,37.598,28.809,18.555,-16.113
47.363,36.133,31.738,20.02,3.418
34.668,33.203,36.133,20.02,30.273
21.484,34.18,37.109,20.996,55.664
6.348,37.598,34.18,17.578,40.527
20.02,40.527,34.18,18.555,6.348
50.293,41.992,39.062,19.043,19.531
41.016,40.527,37.109,14.648,-2.441
26.367,37.109,33.203,12.695,-3.418
13.672,37.109,37.109,12.207,46.387
18.555,36.621,36.621,15.137,83.984
49.805,36.621,35.156,15.625,83.008
52.246,40.527,38.574,12.207,34.668
38.086,44.922,33.203,9.766,-18.066
19.531,44.434,26.855,9.277,1.953
20.996,40.039,22.461,13.184,-20.508
43.457,37.109,20.996,15.137,-22.949
40.039,35.645,24.414,14.648,70.312
25.391,30.762,23.438,12.207,41.992
5.859,24.414,20.996,4.883,4.883
6.348,28.32,17.578,7.324,37.598
44.434,30.273,13.184,14.648,19.531
55.664,31.738,23.926,15.625,-6.348
33.203,33.203,25.879,10.254,16.113
9.766,35.156,13.184,0.977,10.742
4.883,38.086,13.672,0,37.598
33.203,38.574,20.508,4.883,74.219
44.922,36.621,23.438,7.324,5.859
28.809,34.18,20.02,11.719,-71.289
15.137,38.574,21.484,12.695,-62.012
8.789,38.086,26.367,10.254,14.648
40.039,36.621,33.691,17.09,21.484
64.453,39.551,36.621,21.484,30.273
51.27,39.062,32.227,21.484,81.543
39.062,37.598,31.738,20.508,19.043
24.902,38.086,33.691,15.137,-16.113
43.945,36.133,31.738,12.695,17.578
63.965,33.203,33.691,10.742,62.988
51.758,37.109,33.691,8.301,57.617
36.133,39.062,30.762,6.348,58.105
20.508,34.668,29.297,4.395,25.879
37.109,29.297,27.344,6.348,24.414
56.152,26.367,23.926,9.766,56.152
46.875,25.391,19.043,7.324,-2.93
33.691,23.926,21.973,3.418,-4.395
13.184,26.855,21.484,-2.441,46.875
27.344,26.855,21.484,-3.906,50.781
56.641,25.391,24.414,0.488,20.508
43.945,27.344,22.949,3.906,-26.855
34.18,22.461,17.578,7.812,5.371
16.113,18.555,17.09,-0.488,71.289
20.996,19.531,24.414,-2.441,41.016
52.734,20.02,30.273,4.395,33.203
45.898,18.555,28.32,7.324,34.18
31.25,19.531,27.832,8.301,47.363
14.16,20.508,27.344,6.348,64.941
17.578,19.043,21.484,3.418,41.504
47.363,18.066,20.508,6.348,41.016
49.805,20.996,26.367,17.09,20.02
30.762,24.414,27.344,19.043,-1.465
5.371,20.508,26.367,7.812,43.945
8.301,18.066,23.438,1.465,68.359
42.969,23.438,18.555,4.395,20.508
41.992,28.809,19.531,6.836,-16.602
19.531,23.438,16.602,8.301,13.184
0.488,21.484,14.648,7.812,10.254
-6.348,20.996,14.16,2.441,-16.602
19.531,14.16,13.184,4.395,17.578
30.762,18.555,11.23,10.254,34.668
14.16,23.926,12.695,6.836,12.695
-6.836,25.391,14.648,0.977,28.32
-11.719,25.391,9.277,3.906,52.246
19.531,28.32,12.695,8.789,3.906
31.738,30.762,19.043,10.742,-17.09
12.207,27.344,13.184,10.254,20.02
-3.418,24.414,11.23,7.812,15.625
-12.207,28.32,16.602,8.789,32.715
15.625,27.344,22.461,15.625,98.633
32.715,25.391,22.461,15.137,44.434
18.066,28.32,16.113,13.184,-1.465
1.465,27.344,11.719,13.184,-5.859
-14.648,26.855,14.648,9.766,18.555
9.277,26.367,18.066,12.695,48.34
33.203,30.762,22.949,15.625,-31.738
22.949,35.645,24.414,19.043,-41.992
5.371,35.645,20.996,17.578,36.133
-11.719,36.621,23.438,13.672,64.453
7.324,34.18,23.438,17.578,4.883
30.273,28.32,24.902,16.113,-23.926
19.531,29.297,26.855,13.672,12.695
5.859,32.227,25.879,14.16,-8.301
-9.277,28.809,29.785,11.23,35.645
7.812,29.785,30.273,16.113,65.43
40.527,32.715,29.785,19.043,50.293
32.227,30.273,32.715,18.066,28.32
15.625,30.273,33.691,20.996,-1.953
-0.488,33.691,35.156,18.555,-14.648
10.254,33.691,36.621,18.066,-51.27
43.457,32.715,37.109,21.973,5.371
34.18,30.762,33.691,15.137,23.926
14.16,29.785,31.738,11.23,-17.578
-3.906,30.762,27.344,9.766,19.043
0.977,29.297,24.902,11.23,8.789
31.738,26.855,30.273,17.09,28.809
26.855,23.926,35.156,22.461,62.988
12.695,28.32,35.156,22.949,-0.977
-6.348,38.574,30.762,15.625,-6.836
-11.23,40.039,23.926,8.789,-17.578
22.461,38.086,20.508,8.301,-14.648
27.344,42.48,24.414,10.742,34.668
9.766,39.551,31.25,11.719,86.426
-3.418,36.133,28.809,11.719,57.617
-2.93,41.992,27.832,12.695,25.879
26.367,44.434,27.832,13.672,32.715
35.156,41.992,24.902,16.602,-28.809
20.996,41.992,27.832,24.902,-14.648
3.418,33.691,25.391,22.461,-3.906
-7.812,27.832,27.832,12.207,1.953
18.066,32.715,33.203,10.254,25.391
33.203,35.156,32.715,11.23,-1.953
20.508,32.715,29.297,10.254,4.395
2.93,28.32,25.879,10.742,21.484
-15.625,27.344,31.25,7.812,39.062
6.348,29.785,33.691,10.254,32.227
30.273,34.18,29.297,11.719,-8.789
20.02,37.598,23.926,9.277,-27.344
-1.465,34.668,19.043,5.371,-3.418
-21.484,33.203,16.113,1.465,24.414
2.93,28.809,18.066,6.348,-18.555
23.926,23.926,25.879,9.277,27.832
6.836,28.32,28.809,11.23,82.031
-11.23,31.738,25.391,8.301,28.809
-23.926,32.715,21.484,7.324,31.25
2.93,32.227,20.996,15.137,12.695
30.273,33.203,21.484,20.996,-14.16
16.602,34.18,24.414,20.02,8.789
0,30.762,27.344,19.531,-19.043
-11.23,33.203,34.18,21.973,-2.441
6.836,31.25,40.527,24.414,58.594
32.227,26.367,42.48,25.879,69.824
27.344,28.809,41.504,25.879,26.367
18.555,30.762,41.504,22.461,16.602
-0.488,30.273,36.621,16.113,59.57
2.93,25.391,27.832,12.695,44.434
29.297,23.438,32.715,12.207,20.996
21.973,22.949,39.062,12.207,27.344
4.883,19.531,36.621,10.742,-22.461
-12.207,21.973,32.227,7.324,7.324
-6.836,25.391,25.391,6.348,56.641
30.273,24.902,24.414,12.207,43.945
35.156,29.785,32.715,12.207,59.082
13.184,32.715,34.18,8.789,43.457
-5.859,31.25,23.926,5.371,34.18
-6.836,31.738,22.461,0.488,86.426
22.461,29.297,24.414,3.418,75.195
29.297,26.367,26.855,4.883,70.801
12.207,30.273,29.785,6.348,81.055
-5.371,29.785,33.203,5.371,63.965
-10.742,26.855,31.25,-2.441,38.574
18.555,26.367,29.297,1.465,14.648
31.738,27.832,31.25,7.812,1.953
9.277,25.391,29.297,0.488,18.555
-13.672,20.508,31.25,-5.859,35.645
-21.484,16.113,34.18,-6.348,0.488
3.418,13.672,29.297,-3.906,-0.488
16.602,18.066,29.785,-0.977,4.395
2.93,21.484,33.203,-7.812,41.504
-9.766,20.996,24.414,-10.742,13.184
-20.02,24.414,14.648,-10.742,-38.574
0,30.762,12.207,-10.742,-9.766
16.113,35.156,18.555,-4.883,37.109
-5.371,31.25,20.508,-7.812,82.031
-26.367,23.926,18.555,-17.09,96.191
-32.227,26.855,17.09,-15.137,104.98
7.812,36.621,16.602,2.93,-11.23
43.945,38.574,18.555,20.508,-46.387
33.691,34.18,23.438,23.926,26.855
16.602,34.668,27.832,22.461,13.672
1.465,35.645,30.762,21.973,25.879
15.625,33.691,30.762,19.531,0
38.086,31.25,28.32,15.625,25.879
34.18,30.762,23.926,21.973,71.777
22.949,30.762,21.973,27.832,56.152
-1.465,35.645,28.32,23.438,43.945
9.277,38.086,26.855,24.414,41.504
41.504,38.086,21.484,23.926,52.734
26.855,39.551,26.855,16.113,54.199
2.441,39.551,28.809,12.207,-31.738
-15.625,34.668,33.203,6.348,-25.391
-3.418,32.715,36.133,6.348,50.781
33.691,32.715,38.574,9.766,57.617
30.762,32.227,41.992,6.348,47.363
19.531,32.715,40.039,10.742,41.016
3.906,30.273,35.645,7.324,40.527
0.488,26.855,32.227,-1.465,-7.324
32.227,26.367,32.715,4.395,-15.625
33.203,25.391,30.762,8.301,55.176
15.625,29.297,24.414,4.883,18.066
-1.953,37.109,20.996,1.953,-65.918
-7.812,37.598,25.879,1.465,-13.672
20.996,32.715,33.691,8.301,68.848
30.762,35.156,39.062,14.16,49.805
17.578,39.062,43.457,13.184,45.898
2.93,41.504,40.039,12.207,61.035
-2.93,39.551,37.109,14.16,54.688
26.855,35.156,39.551,17.578,42.969
41.504,37.109,41.016,18.555,76.66
23.438,35.645,38.574,13.184,10.742
4.883,30.273,32.715,8.301,-36.133
-0.488,31.25,36.133,8.789,-25.879
25.391,34.18,41.016,10.254,3.418
39.551,37.109,39.551,12.695,41.992
29.297,39.551,35.156,13.672,-1.953
13.184,39.551,26.367,7.812,-6.836
-2.441,38.086,24.414,5.859,8.789
17.578,32.227,33.203,8.789,0.488
34.18,33.691,41.504,10.254,28.809
16.602,34.18,43.457,8.301,30.762
-3.418,32.227,43.457,2.441,-12.207
-17.578,33.691,46.387,2.93,-3.418
6.836,33.691,45.41,11.719,40.039
37.109,34.18,40.039,20.996,34.18
27.344,35.156,36.133,19.043,4.883
5.371,32.715,28.809,8.301,-16.113
-11.23,29.785,19.531,7.812,-22.949
11.719,30.273,21.973,13.672,27.344
40.527,32.715,24.414,9.277,39.062
23.438,33.203,24.414,1.953,2.93
8.789,30.273,22.461,2.93,-31.738
-13.184,27.344,19.531,0.977,47.363
-6.348,21.484,22.949,-2.441,90.82
26.855,17.578,27.832,-1.953,51.758
24.414,19.043,29.785,1.953,24.902
10.254,23.926,29.297,1.465,0
-8.301,27.832,28.32,2.93,52.246
1.953,25.391,29.297,13.672,78.613
31.738,20.996,24.414,18.555,41.016
23.926,18.066,20.996,13.184,34.18
11.23,23.438,25.879,13.184,48.828
-4.883,29.297,26.367,15.137,36.133
-2.93,31.25,24.414,13.184,40.039
33.691,31.25,28.809,17.578,-0.977
35.645,24.902,25.391,16.602,38.574
19.043,18.555,20.996,15.137,51.758
2.441,19.043,26.855,16.602,-7.812
-0.488,22.461,33.203,14.16,-18.555
35.645,22.949,34.18,16.602,-28.809
43.945,29.785,28.809,19.043,19.531
24.414,36.133,30.273,20.996,56.641
8.789,33.691,33.203,19.531,55.176
0.977,28.809,35.156,20.996,43.457
27.832,23.438,30.762,27.832,15.137
38.086,27.344,29.785,23.926,6.348
20.508,32.715,30.273,16.113,29.785
5.371,26.367,23.926,12.695,41.016
-5.371,21.484,28.32,10.254,28.809
20.02,26.367,32.227,10.254,11.23
31.738,31.25,27.832,6.836,-27.832
14.648,34.18,27.344,4.395,-41.504
-1.953,36.621,21.484,-1.465,-52.734
-17.09,36.133,21.484,-7.812,-12.695
6.836,27.344,26.367,-8.301,61.035
30.273,26.367,25.879,-4.395,81.055
16.113,31.25,26.367,-5.371,7.812
-1.465,33.691,24.414,-6.836,-11.23
-15.625,35.645,25.879,-2.93,28.809
-3.418,31.738,31.738,1.953,58.105
36.133,33.691,34.668,8.789,83.008
39.062,34.18,34.668,16.113,29.785
5.371,36.133,37.109,18.066,-6.348
-17.578,36.133,37.109,8.789,-33.691
-7.812,31.738,37.598,0.977,-10.742
23.438,32.227,35.645,2.93,6.836
18.066,34.18,31.25,0.977,3.418
-3.418,31.738,30.273,-4.883,18.066
-20.996,31.25,32.715,-3.418,-17.578
-3.906,35.156,29.785,3.906,19.043
33.203,37.598,28.32,8.789,85.938
33.691,38.086,33.203,11.719,31.738
18.066,39.062,27.832,11.719,28.809
3.906,41.016,21.973,9.277,52.246
9.277,40.039,28.32,10.742,54.199
36.133,34.668,32.715,15.625,24.414
33.691,31.25,34.18,12.695,-20.508
17.578,34.668,29.297,11.23,17.578
-4.395,36.133,20.996,12.207,-9.277
-5.371,37.598,28.809,8.301,-20.508
30.762,38.086,32.227,13.184,24.414
37.109,35.645,29.297,20.996,13.672
18.066,36.133,31.738,22.461,-52.734
-3.418,34.668,33.691,12.207,-39.551
-8.301,33.691,35.156,5.859,38.574
26.855,36.133,34.668,8.301,21.973
36.621,40.039,33.691,6.348,28.32
18.555,44.922,32.715,3.418,62.012
3.906,44.434,36.621,3.418,28.32
-4.395,37.598,40.039,4.395,46.875
23.438,33.691,43.945,7.324,89.844
40.039,33.691,41.992,9.766,29.785
22.949,38.086,36.621,8.301,-41.992
4.395,43.457,36.133,4.883,0.488
-6.348,45.41,36.621,5.371,45.41
21.973,45.41,33.691,8.301,35.645
42.969,49.316,30.762,8.301,47.363
25.879,48.828,33.691,9.277,17.09
11.23,44.434,35.156,8.789,-21.973
-0.977,38.574,31.25,8.301,-10.742
21.484,31.25,26.855,15.625,16.602
46.387,32.715,32.227,24.414,20.996
30.762,36.621,36.621,24.902,19.531
7.812,34.668,33.203,20.02,29.297
-6.836,36.621,34.668,18.555,64.453
20.508,38.574,34.18,22.461,68.359
42.48,32.715,26.367,25.391,65.918
29.785,34.668,26.367,24.414,37.109
17.578,36.133,22.461,21.973,-5.371
-2.441,31.738,16.113,15.625,-5.371
10.254,31.25,20.02,16.113,25.391
40.039,33.203,24.414,21.973,38.086
33.203,32.227,28.32,20.02,7.812
12.695,31.25,24.414,15.625,-14.16
-7.812,34.668,20.508,11.23,19.043
3.906,35.645,20.02,10.254,39.551
36.621,36.621,14.16,13.184,33.203
30.762,40.527,15.137,10.742,-2.441
14.16,40.039,23.438,7.812,2.93
-1.465,34.18,27.832,7.324,54.688
0.977,30.762,30.273,5.859,48.828
31.25,31.25,31.25,10.742,31.25
35.156,32.227,28.32,15.137,-56.152
24.414,30.762,27.832,19.043,-40.039
