TP9,AF7,AF8,TP10,Right AUX
45.41,41.016,65.43,41.504,23.926
25.391,42.48,72.266,31.25,28.32
20.996,41.016,77.637,33.691,55.176
35.645,40.527,76.172,28.32,36.133
39.551,37.109,74.707,39.062,-7.324
38.086,37.598,67.871,44.922,0
42.969,40.527,60.547,31.738,33.691
40.039,38.086,57.129,36.621,55.664
26.855,35.156,54.199,37.598,14.16
28.809,32.715,56.152,32.715,39.551
39.551,34.18,58.594,39.062,-3.418
40.039,37.109,55.176,44.922,-14.648
41.504,37.598,47.852,42.48,65.918
36.621,34.18,41.992,31.738,53.223
28.809,31.25,36.621,23.438,-17.09
38.574,34.18,38.086,22.461,-4.395
41.992,37.109,37.109,26.367,62.988
22.461,31.738,30.273,28.32,29.785
23.438,29.297,25.391,26.367,-15.625
50.293,28.32,16.113,21.973,-15.625
55.664,29.785,21.484,29.785,-17.578
30.762,34.18,34.18,41.504,33.203
30.762,30.273,25.391,23.926,74.707
27.344,25.391,18.555,16.113,90.82
9.766,21.973,15.625,31.738,20.508
42.48,24.902,16.113,22.461,34.18
49.316,31.25,20.02,19.043,94.238
17.578,30.762,22.949,31.25,86.914
4.395,28.32,13.184,25.879,56.152
15.137,26.367,11.23,22.461,34.668
38.574,26.367,17.09,30.273,87.891
32.715,27.832,15.137,28.32,62.5
12.695,27.832,12.207,18.555,23.926
1.953,28.809,4.395,13.184,52.246
0.977,27.344,4.395,1.465,22.949
10.254,21.484,16.113,6.836,6.836
19.531,16.113,24.414,16.602,25.879
15.625,17.578,25.391,12.695,25.879
-8.789,18.555,25.391,4.883,54.688
-8.789,18.066,20.508,6.348,-19.531
17.09,19.043,24.902,16.113,-16.602
9.766,17.578,31.738,16.113,25.391
-8.789,20.02,30.273,9.766,-5.859
-0.488,22.949,25.391,6.348,3.418
1.465,21.973,25.391,4.883,9.277
2.441,23.438,23.926,1.465,60.059
10.742,27.344,29.297,0.977,108.398
0.977,26.367,31.738,-0.488,36.133
-3.906,24.414,26.855,0.488,9.766
-1.465,22.949,30.273,1.953,109.863
11.719,19.531,35.645,-7.324,101.562
15.137,21.484,42.969,-5.371,4.883
-5.371,21.973,55.176,6.348,-56.152
-24.902,24.902,51.27,-4.395,-10.742
-13.672,24.902,48.34,-20.996,9.766
-2.93,23.926,55.176,-8.301,6.836
3.906,28.809,62.5,3.418,27.832
-0.488,26.855,72.266,0.488,10.254
-16.113,25.391,73.242,-12.207,8.301
-2.441,27.344,70.801,-15.625,5.371
24.414,28.809,65.918,-2.93,-3.906
32.227,27.344,65.918,-4.883,15.137
14.16,22.949,67.383,-3.418,13.672
9.766,19.043,56.641,30.762,-23.926
2.93,20.996,48.34,17.578,4.395
18.066,25.391,41.992,-4.395,60.059
41.016,28.809,42.48,20.508,20.996
29.297,34.668,50.781,27.344,-21.484
14.16,36.133,51.758,29.297,-2.441
32.715,35.645,47.852,34.18,61.035
33.691,33.691,43.457,38.086,52.734
26.367,30.762,46.875,25.879,20.508
22.949,29.297,55.664,27.344,47.363
14.16,27.344,54.199,33.203,72.754
11.23,22.461,52.734,27.344,-0.488
20.02,19.043,63.965,26.855,-39.551
39.062,23.926,83.008,23.926,40.039
29.297,29.297,81.543,20.996,41.504
16.113,29.297,80.078,22.949,19.531
23.438,25.879,81.055,27.344,52.246
19.043,25.879,74.219,23.926,11.719
23.926,26.367,76.66,11.719,-19.043
46.875,31.25,77.148,16.602,16.113
31.25,30.762,75.195,31.25,50.293
11.719,29.785,70.801,33.203,67.871
16.602,30.273,73.73,20.508,22.461
41.016,27.832,76.66,18.555,2.93
49.316,27.344,71.777,30.273,-39.551
32.227,30.273,67.383,37.598,-107.422
20.996,28.809,62.012,31.25,-6.348
14.648,25.879,65.918,25.879,57.129
24.902,29.297,66.406,31.25,19.531
33.203,27.344,62.988,25.879,50.781
26.367,24.902,64.453,16.602,85.449
23.438,22.949,55.176,16.602,108.887
11.719,22.461,43.457,16.113,70.801
18.066,20.996,43.457,22.461,19.531
44.434,21.973,55.176,29.785,2.441
37.109,23.438,56.641,26.367,28.32
26.367,25.391,52.734,24.414,36.621
26.855,25.879,45.898,29.297,-52.246
29.785,25.391,41.992,34.668,9.766
49.316,28.32,46.875,40.527,52.734
40.039,30.273,47.852,30.273,57.129
27.344,32.715,37.109,22.949,24.902
29.785,34.18,37.109,26.855,-27.344
16.602,34.18,28.32,8.301,-7.812
39.551,37.109,21.973,25.879,49.316
40.039,39.062,24.902,41.016,87.891
8.789,35.156,17.578,14.648,58.594
7.324,32.715,19.531,2.441,33.203
6.836,34.668,19.531,-2.93,42.48
24.902,40.527,18.555,0,-0.488
28.32,39.062,19.531,1.465,8.301
7.812,34.668,19.531,-5.371,26.367
-1.953,35.645,20.02,-13.184,4.883
8.789,35.645,18.555,-13.184,-8.789
31.25,31.25,20.996,-12.695,41.992
24.414,33.203,24.414,-2.441,29.297
13.184,30.762,27.832,0.977,6.836
5.371,23.438,34.18,-5.859,54.199
-0.977,25.391,34.18,-13.672,2.441
8.789,25.391,28.809,-8.301,-41.016
7.324,21.973,27.344,4.395,0.488
7.812,20.508,27.832,14.16,54.688
4.395,22.461,21.484,5.371,62.012
-5.371,24.414,19.043,-5.859,52.246
18.066,23.438,20.508,-11.23,23.438
25.879,24.414,22.461,-6.836,13.184
9.277,24.414,26.855,6.348,16.602
3.906,23.926,28.809,5.859,38.574
6.348,26.367,28.32,4.883,39.551
21.973,25.391,28.32,15.625,63.965
31.738,23.438,36.621,17.578,35.156
25.391,25.879,40.527,4.395,16.113
11.23,26.855,31.25,-3.418,14.16
9.766,29.297,37.109,-0.977,31.25
28.32,33.203,41.992,17.09,67.871
36.621,31.738,41.504,19.043,78.125
23.438,27.832,46.875,12.695,87.402
21.973,24.902,46.387,12.695,2.93
21.973,23.926,49.316,22.461,-12.207
26.855,20.02,51.27,29.297,65.43
31.738,17.578,54.199,4.883,58.594
15.625,15.625,53.223,10.742,-8.789
10.742,16.602,47.363,22.461,-12.207
13.672,18.555,40.039,3.418,41.016
19.043,19.531,32.227,5.371,33.203
33.691,21.484,44.434,27.344,20.996
30.273,19.531,55.176,44.922,12.207
23.926,17.578,52.734,32.715,21.484
23.926,20.02,50.293,10.742,30.273
35.156,21.484,48.34,28.809,25.391
59.082,26.367,47.363,31.738,68.848
39.551,30.273,50.781,24.902,34.668
25.391,28.32,51.27,24.902,-15.137
23.438,28.809,49.316,21.973,18.066
26.855,30.273,52.734,19.043,0.977
36.621,32.227,60.059,34.18,-28.809
34.668,31.738,57.129,38.574,-9.277
23.926,30.273,45.41,21.973,45.898
17.09,31.738,39.062,26.367,37.598
13.672,34.668,36.621,11.719,-4.883
21.484,36.133,34.668,10.254,13.184
23.438,32.227,34.18,24.414,-4.883
27.344,27.832,30.762,32.227,-21.973
38.086,29.785,25.879,29.785,-27.344
27.344,29.297,37.109,19.043,25.879
17.578,28.809,44.922,8.789,-0.488
20.508,33.203,48.34,6.836,-84.961
20.02,31.738,55.664,10.254,4.883
18.555,27.832,51.27,1.953,57.129
17.09,30.273,49.805,1.465,6.836
28.32,37.598,54.199,13.672,35.645
38.086,39.551,60.547,22.461,116.211
28.32,38.086,63.965,11.23,70.312
19.531,40.527,65.43,-4.883,18.555
5.371,37.598,73.242,0.977,71.777
14.16,37.598,69.824,-0.977,36.621
25.879,36.621,75.195,9.766,-18.066
13.184,33.203,81.055,18.066,10.254
8.789,36.133,65.43,7.812,43.457
5.371,37.109,60.059,1.465,11.23
16.113,32.227,59.57,5.859,10.742
35.156,31.738,52.734,11.719,56.641
24.414,34.668,49.805,0.977,42.48
22.949,34.18,54.199,0.977,96.68
25.391,33.203,55.664,3.906,65.918
16.602,31.738,57.129,1.953,9.766
28.809,33.691,63.965,12.695,20.996
26.855,40.039,70.312,17.578,54.688
16.113,41.992,63.477,17.09,54.199
21.973,46.387,56.641,15.137,5.859
32.227,45.898,53.711,10.254,42.48
38.086,41.016,58.105,20.508,19.043
40.527,43.457,63.965,31.738,1.465
36.133,44.434,61.035,29.297,41.504
26.855,41.016,61.035,22.461,59.082
28.809,41.992,57.129,30.273,23.926
51.27,39.551,57.617,37.109,26.855
46.387,34.18,74.219,25.879,40.039
28.32,35.156,72.266,23.926,-32.715
29.297,34.18,58.594,22.461,-36.621
21.484,32.715,57.129,24.902,5.371
32.715,35.156,58.105,20.996,1.465
39.062,34.18,71.289,26.367,38.574
28.32,35.156,67.871,32.227,42.48
28.32,30.762,61.035,26.855,12.207
27.344,28.32,66.895,24.414,22.461
37.109,28.809,66.406,23.438,31.738
49.805,31.25,64.453,27.344,26.855
34.18,32.227,58.105,31.738,20.996
21.484,30.762,52.734,31.25,36.621
24.902,32.715,43.457,31.25,55.664
34.18,32.227,28.809,43.457,26.367
43.457,32.715,26.855,33.203,22.461
30.273,36.133,31.738,21.484,33.691
21.973,40.039,26.367,24.414,26.855
23.926,40.039,14.16,18.555,17.578
29.785,34.18,17.09,15.625,-12.695
48.34,38.574,32.715,20.508,-4.395
44.434,43.945,34.18,33.691,52.246
30.273,41.504,34.18,33.691,26.855
17.09,41.504,41.504,16.602,7.812
20.508,42.48,41.992,10.742,12.207
42.969,43.457,45.41,17.578,9.766
34.668,43.457,39.551,17.09,25.391
27.832,41.992,23.926,15.625,12.695
32.227,38.086,27.344,16.113,26.855
31.738,36.621,28.809,13.672,11.719
38.574,40.039,38.086,23.926,-5.859
44.922,40.527,51.758,20.02,25.879
30.762,35.156,36.621,7.324,-1.953
6.836,30.762,24.414,9.766,-29.785
12.695,28.809,26.855,11.719,28.809
33.691,31.738,26.367,23.438,67.383
32.227,35.645,23.438,31.738,70.801
25.391,36.133,15.625,12.695,91.309
15.625,34.18,10.742,7.324,67.383
7.812,30.273,6.348,11.719,86.426
35.645,30.273,10.254,17.578,79.59
44.922,28.32,18.066,29.297,11.719
30.273,20.02,23.926,45.41,32.227
30.273,23.926,20.996,61.035,93.75
17.09,39.062,6.836,16.113,74.219
19.043,36.133,6.836,-5.859,51.27
32.227,29.785,15.625,10.742,3.906
34.668,36.133,10.254,11.23,-30.273
31.25,37.109,1.465,7.812,-3.418
24.902,36.133,1.953,14.16,-29.297
24.902,39.062,8.789,18.066,-0.977
34.18,44.434,9.277,7.324,28.32
40.039,45.41,11.719,12.695,21.973
29.785,44.434,9.277,13.184,-5.371
17.09,43.945,10.254,5.371,36.621
23.926,39.062,20.508,18.066,81.543
31.738,41.504,24.414,32.227,31.25
54.688,45.41,15.625,23.438,22.949
27.832,44.434,9.277,15.137,29.785
7.812,46.387,16.602,25.879,32.715
34.18,44.922,16.113,19.531,61.523
39.062,42.969,11.719,13.184,39.551
30.762,39.551,15.625,23.926,59.57
29.297,38.086,17.578,16.113,9.277
23.926,38.086,20.02,10.742,-30.762
23.438,35.156,20.02,19.043,47.363
44.434,36.133,13.184,20.02,74.219
39.551,34.18,4.395,29.785,53.223
3.906,33.691,12.207,26.367,23.926
-5.859,34.668,17.578,2.441,-10.742
11.719,34.668,17.09,8.301,-14.648
28.32,31.738,33.691,11.719,39.062
31.738,27.832,43.457,8.301,71.289
30.762,27.832,34.18,12.695,53.711
21.973,26.367,27.344,17.09,20.508
21.484,22.461,26.855,24.902,4.395
38.086,21.484,30.273,29.297,9.277
29.785,23.438,29.297,30.273,20.508
8.301,24.902,17.578,31.25,28.809
1.465,21.973,12.207,31.25,61.035
18.555,24.902,10.254,28.32,50.781
43.457,30.273,14.16,26.855,57.617
41.992,30.273,24.414,29.785,88.867
34.18,32.715,26.367,35.156,65.43
19.531,37.109,28.32,20.508,49.805
1.953,32.227,33.691,-2.93,60.059
9.277,27.832,43.457,-6.348,35.645
19.043,32.715,54.199,-0.977,-5.859
12.207,38.086,59.082,9.766,4.395
16.602,41.504,51.758,24.902,62.012
29.785,41.016,37.598,25.391,50.293
36.133,38.574,35.156,14.648,19.531
32.227,36.621,40.527,20.508,-2.93
29.297,38.086,41.016,25.879,31.738
27.344,36.621,33.203,20.508,62.988
19.043,32.227,28.809,12.695,-15.137
21.973,30.762,24.414,11.23,-21.484
31.25,30.273,22.461,19.043,-22.461
30.273,32.715,31.738,26.367,-13.672
25.391,34.18,30.273,26.367,34.668
20.996,34.18,26.855,20.996,18.066
42.969,38.574,26.855,16.113,76.172
63.965,39.551,35.156,22.949,55.664
36.621,33.203,41.992,27.832,-24.902
13.184,29.297,40.527,28.32,-13.672
18.066,30.273,36.133,26.367,-23.926
30.762,35.645,31.738,25.391,15.625
47.363,37.598,34.668,23.438,64.941
53.223,35.645,40.527,33.691,65.918
33.203,34.668,35.156,38.086,20.996
17.578,34.668,28.809,29.297,46.875
23.926,34.18,29.297,21.484,62.012
47.852,33.203,31.25,33.203,32.227
39.551,32.227,34.18,32.715,57.129
20.02,33.203,29.297,11.23,72.754
22.949,32.227,22.949,9.277,26.855
15.137,27.344,23.438,16.113,36.133
25.391,31.25,28.32,18.555,13.672
31.738,33.203,33.203,20.508,43.457
21.484,31.738,28.32,22.461,56.641
23.438,32.715,22.461,20.508,-7.812
29.785,33.203,19.531,20.508,22.949
37.598,34.18,19.043,19.531,96.191
35.156,31.25,21.973,16.113,49.316
18.555,24.902,24.902,20.996,43.945
14.16,23.926,23.926,18.066,77.637
17.09,26.367,21.484,14.648,33.691
30.762,29.297,28.32,20.02,50.781
38.086,26.855,28.809,23.926,38.574
27.832,23.926,11.23,22.461,55.664
22.461,28.32,6.836,15.137,24.902
16.602,31.25,11.719,13.672,55.176
24.414,30.762,3.906,15.625,121.094
29.297,30.273,6.836,18.555,48.34
17.578,31.738,4.395,23.926,-19.531
12.695,37.598,-2.441,25.879,0
11.719,41.016,-0.488,20.996,25.879
20.508,39.062,4.395,23.438,-7.324
36.621,38.086,13.672,31.738,-2.441
35.156,40.039,5.371,33.691,-16.113
16.113,40.039,-1.465,31.25,-13.184
3.906,38.574,-3.906,23.926,69.824
17.578,41.016,-6.348,19.043,51.27
31.738,39.551,0,30.762,35.156
23.438,41.016,-0.488,25.391,31.738
15.625,40.527,0,13.672,41.016
11.719,38.086,3.906,21.973,29.785
21.973,44.922,10.742,18.555,-4.883
38.086,44.434,26.367,15.625,19.531
28.809,42.48,31.738,21.484,41.016
17.578,42.969,29.785,16.602,86.914
12.695,40.527,35.156,13.672,86.914
20.996,38.086,37.109,19.043,60.059
42.48,38.086,42.48,22.461,50.293
40.039,38.574,41.992,23.438,24.902
22.461,36.133,36.133,21.973,-0.488
22.461,35.156,39.062,15.625,-0.977
29.297,37.598,37.598,9.277,23.926
34.18,37.109,35.156,8.301,27.344
38.086,37.598,41.992,10.254,25.879
29.785,34.18,42.969,10.254,44.434
19.531,30.762,36.621,8.789,6.836
22.461,31.738,30.273,10.254,-10.742
38.086,30.273,29.297,15.137,10.254
44.434,28.32,37.109,15.625,12.695
33.203,25.391,26.855,12.695,46.387
32.715,29.297,16.113,13.672,30.273
29.785,30.762,16.602,11.719,4.395
32.227,29.297,12.695,8.789,-3.418
42.969,31.25,8.789,12.207,0.488
33.691,28.32,4.395,13.672,-1.953
21.484,26.855,6.836,11.23,4.883
21.973,28.32,-4.395,11.719,45.898
37.598,33.203,-6.836,8.789,53.223
40.527,39.551,3.906,10.254,11.719
32.227,40.527,2.93,16.113,20.02
20.02,35.645,5.371,10.254,52.246
11.719,32.715,6.348,8.301,83.008
21.973,32.715,4.395,10.742,64.941
32.715,34.668,16.602,12.695,104.004
24.414,34.18,23.926,15.137,66.895
15.625,34.18,16.602,15.625,-25.879
12.207,31.25,16.113,15.137,17.09
25.879,28.32,18.066,14.648,24.902
36.133,29.297,20.996,20.02,10.254
16.113,30.273,19.043,15.625,41.992
2.441,34.668,14.648,14.16,50.293
1.953,35.156,13.672,19.043,55.664
9.277,35.645,8.301,15.625,69.336
25.391,38.574,9.277,15.625,27.344
28.809,35.645,11.719,20.508,66.895
17.09,31.738,5.859,15.625,74.707
6.348,31.738,3.906,10.254,17.09
16.602,35.156,4.883,7.812,3.906
35.156,36.133,12.695,11.719,-8.301
30.273,37.109,19.043,22.949,-16.113
21.973,35.645,13.184,24.902,21.484
23.926,37.598,6.836,22.949,61.035
28.809,38.086,3.418,13.672,46.875
43.457,34.18,13.184,11.23,2.93
48.828,35.156,16.113,19.043,41.016
36.621,34.18,7.812,20.996,49.805
33.691,34.668,8.789,24.902,11.23
36.133,35.645,12.207,24.414,41.992
47.363,35.645,18.066,29.785,50.293
50.781,35.156,27.344,29.785,0.488
28.32,33.203,33.691,26.855,-24.902
15.625,35.156,29.785,24.902,30.762
21.973,40.527,21.484,19.531,61.035
37.598,41.992,19.043,20.02,14.16
43.457,37.109,28.32,20.02,-4.395
27.344,35.645,30.273,20.508,70.801
14.16,39.551,21.973,17.09,50.781
6.836,39.062,14.648,14.16,-1.465
14.648,40.527,11.719,16.113,3.906
24.902,42.48,26.367,19.043,56.152
19.043,41.016,35.156,22.461,55.176
11.719,39.062,23.438,21.484,36.133
7.812,35.156,14.648,11.719,24.902
13.184,36.133,23.438,7.324,-24.414
26.367,37.598,42.969,8.789,-32.715
18.555,35.156,42.969,16.602,-23.926
4.883,37.109,35.156,19.043,44.434
-2.93,35.156,28.32,4.883,46.875
13.672,34.18,25.879,11.23,25.391
31.738,31.25,34.18,22.461,49.316
18.555,31.25,32.227,20.508,56.641
12.207,34.18,19.043,20.508,20.996
8.789,36.133,15.625,23.438,-27.832
17.09,39.062,18.066,18.555,-7.324
35.156,39.062,19.043,18.555,0
28.809,40.039,17.578,25.879,-20.996
21.973,41.016,10.742,23.438,20.02
16.113,39.551,2.441,18.555,18.555
9.766,41.992,3.418,20.02,-57.617
24.414,41.992,18.066,29.297,-55.664
34.668,43.945,21.484,31.25,-6.348
27.832,47.363,17.578,33.203,14.16
18.066,46.387,15.137,21.484,52.734
13.184,39.551,7.812,7.324,63.965
21.484,35.645,12.695,14.16,64.941
23.926,40.039,20.508,19.043,50.781
18.066,43.457,16.113,21.484,51.27
25.391,41.992,13.672,31.738,91.797
11.719,33.203,6.836,19.531,39.062
13.184,33.691,-0.977,2.441,9.766
46.387,39.551,-2.93,25.391,17.09
36.621,32.715,8.301,37.598,28.809
6.348,26.855,10.742,18.066,38.574
-9.766,20.508,-1.465,4.395,32.227
3.418,14.16,6.348,3.906,62.988
9.277,12.695,24.414,16.602,83.008
1.953,13.672,29.297,24.414,56.641
-0.488,13.184,39.062,10.742,14.648
-17.578,10.254,40.039,2.93,-24.902
-0.488,5.859,41.504,9.766,15.137
20.508,2.93,48.34,11.719,58.105
12.695,9.277,43.457,17.09,54.688
2.441,10.742,34.668,25.879,20.02
-6.348,7.812,31.25,24.902,17.09
7.324,7.324,33.691,24.414,34.18
23.926,8.789,42.48,25.391,24.414
18.066,12.207,42.969,23.926,53.223
13.184,14.16,39.551,23.926,6.836
9.277,13.184,38.574,27.344,-40.039
10.742,16.602,39.062,22.461,-11.719
28.32,21.484,42.969,18.555,43.457
19.531,24.414,39.062,27.344,-4.883
1.465,25.879,29.785,23.438,-22.949
2.441,25.391,25.391,13.184,16.113
6.348,23.926,26.367,10.254,-3.418
13.672,24.414,33.203,10.742,-39.551
10.742,24.414,35.645,9.277,-37.109
8.301,20.996,33.203,4.395,16.113
-1.465,14.648,40.527,3.418,18.555
-9.277,11.719,30.762,1.465,62.988
14.648,14.648,29.297,12.695,119.141
18.066,18.555,40.039,21.973,39.062
3.418,20.996,28.32,8.301,19.531
2.93,21.484,20.508,2.441,78.613
10.742,24.414,23.438,10.254,46.875
25.391,27.344,32.715,22.461,26.855
33.691,26.855,38.086,30.273,16.602
22.949,25.879,37.598,26.855,7.324
9.766,24.902,36.133,27.344,39.551
14.648,24.414,25.879,19.043,48.34
34.668,25.879,24.414,19.043,23.438
56.641,28.809,34.18,21.484,20.02
45.898,28.809,34.668,18.066,0.977
16.602,25.391,29.785,24.902,95.215
6.348,24.902,21.973,26.855,96.68
24.414,27.344,24.902,24.902,-10.254
46.875,29.297,29.785,29.785,20.996
30.273,30.273,29.297,27.832,64.941
11.719,31.738,24.902,21.973,50.781
11.719,31.738,18.555,23.926,-17.578
23.438,33.203,28.32,31.25,-28.32
44.434,35.645,40.527,39.062,47.852
36.133,37.109,46.875,32.715,69.336
21.973,35.156,45.898,30.762,22.461
16.602,33.691,43.945,30.762,8.301
9.277,32.227,41.992,20.02,44.922
20.02,33.203,47.852,15.625,59.082
15.137,32.715,53.223,21.973,20.508
-3.906,25.879,51.758,28.32,74.219
8.301,29.297,41.504,23.438,94.727
15.625,34.18,36.621,16.113,48.34
8.789,31.25,45.41,16.113,77.637
18.555,31.738,41.992,23.926,62.5
9.766,30.273,27.344,20.996,37.598
-4.883,28.809,18.555,12.207,61.523
12.207,28.32,17.09,22.461,101.074
29.785,26.855,17.578,23.926,39.551
28.32,27.344,19.043,19.043,-6.348
18.066,29.785,13.184,30.762,15.137
-1.465,31.25,7.812,19.043,18.066
-0.488,30.762,5.371,4.395,12.207
16.602,28.809,14.648,9.277,-10.742
20.508,30.273,25.391,8.301,-31.738
5.371,25.879,27.832,20.508,34.668
7.324,22.461,24.902,24.414,58.594
3.418,20.996,10.742,-3.418,29.297
11.719,23.926,13.184,-1.953,38.574
22.461,24.414,25.391,4.395,31.738
23.438,23.926,21.484,9.766,20.996
18.066,28.809,17.578,4.883,-51.758
-4.883,28.32,16.113,3.906,-46.875
14.648,24.414,21.484,23.926,8.789
27.344,23.438,28.32,27.344,5.859
14.648,25.391,32.227,23.926,24.902
20.02,28.809,29.297,15.137,28.809
32.227,32.227,26.855,10.254,37.109
26.855,32.715,38.086,13.184,75.684
18.066,29.785,42.48,21.484,52.734
28.32,31.25,34.668,28.809,27.832
28.809,34.18,25.391,28.809,-21.484
19.531,32.227,17.09,15.137,-59.082
36.133,27.832,17.578,10.742,42.48
47.852,26.855,28.32,20.996,78.125
33.203,24.902,33.203,35.645,11.23
24.414,22.461,32.715,27.832,17.09
10.742,21.973,27.344,17.578,31.738
14.648,22.949,21.973,22.461,64.941
33.691,20.996,22.461,22.461,52.734
31.738,17.09,20.02,26.855,-10.254
29.297,18.555,16.602,32.227,28.809
24.414,20.508,8.789,24.902,30.762
24.902,20.02,2.441,14.648,-13.672
42.48,21.973,7.812,22.461,25.879
41.504,25.391,12.207,32.227,32.227
20.508,21.973,6.836,25.879,39.551
6.348,22.461,3.418,18.066,32.715
11.719,25.879,3.418,16.602,-13.184
31.25,23.438,14.648,23.926,-15.137
24.902,21.484,19.531,21.973,-24.902
2.93,17.578,17.09,12.695,52.246
0.488,22.461,11.23,5.859,97.168
12.695,31.25,-2.441,5.371,54.688
28.32,34.18,-9.766,7.324,21.973
32.227,35.645,-8.301,7.324,-25.391
20.996,32.227,-6.836,19.531,-12.207
4.395,31.25,-8.301,14.16,51.758
4.883,29.785,-17.09,-3.906,69.336
32.715,29.297,-7.812,-2.441,-0.977
47.363,30.762,13.672,8.789,67.871
23.926,27.344,15.137,6.348,75.684
0.488,25.391,10.254,8.789,-35.645
13.672,25.391,17.578,6.348,-4.395
27.832,28.32,30.762,-1.953,85.938
42.969,31.738,23.926,7.324,115.723
43.945,33.691,20.02,13.672,37.109
34.668,35.645,25.879,2.93,44.922
31.25,32.715,21.484,3.906,45.898
35.645,31.738,27.832,7.812,-16.602
53.711,31.738,34.668,0.488,-13.672
36.621,28.809,20.02,-6.348,-4.395
3.418,24.414,14.16,-6.348,-9.766
-5.859,21.973,20.02,1.953,-13.184
24.902,26.367,21.484,12.695,13.184
37.109,26.855,24.414,20.996,44.922
9.766,25.391,34.668,23.438,72.754
2.93,21.973,36.133,16.602,78.613
2.441,21.973,30.273,-2.441,57.617
2.441,20.508,30.762,-5.859,30.273
18.555,18.555,33.691,10.742,-11.23
16.602,18.555,35.645,14.16,4.395
0,16.602,35.645,7.812,21.973
-12.695,14.648,35.156,3.906,34.668
-4.883,18.066,26.855,4.883,58.105
17.578,24.902,24.902,7.812,45.898
14.16,21.973,29.785,6.836,16.113
-3.418,21.484,24.902,7.812,43.945
-3.418,23.926,22.461,5.371,46.387
11.23,23.926,20.996,-1.953,27.344
11.719,27.344,24.414,-7.812,-3.418
8.301,34.668,34.18,0,4.883
0.977,35.645,34.668,5.859,40.039
-2.93,31.25,31.738,6.348,1.465
4.883,29.297,36.621,17.578,12.695
11.23,26.367,38.086,7.812,42.969
15.625,27.344,37.598,0.977,26.855
10.742,29.297,35.156,2.441,92.773
-0.488,28.32,34.668,-4.395,71.289
4.883,28.32,37.109,-11.23,21.973
19.531,25.879,34.18,-1.953,36.133
18.066,20.996,36.133,15.137,-3.418
12.695,20.02,37.109,26.367,-42.48
6.348,21.484,35.156,18.066,-61.523
12.695,23.926,33.691,24.902,-22.949
34.18,26.367,34.668,34.668,35.156
37.109,25.879,41.016,18.555,72.266
34.668,22.949,43.945,20.996,69.824
17.09,27.832,41.016,36.621,-28.809
6.836,31.738,29.297,24.902,-11.23
35.156,30.762,31.25,16.602,62.5
43.945,32.715,38.574,36.621,-0.977
24.414,36.621,34.668,40.039,-53.711
24.414,38.574,26.855,39.551,-41.016
26.367,38.086,23.438,39.551,5.859
32.715,40.039,31.25,41.016,-3.418
48.34,42.48,43.945,46.387,-14.16
47.852,38.574,35.645,47.363,9.277
43.945,36.621,31.25,50.293,11.23
40.527,41.016,30.273,35.156,-26.367
34.18,42.969,26.367,18.555,-12.207
38.574,39.551,33.203,20.508,80.566
34.18,35.156,22.461,24.414,42.48
27.344,38.086,13.184,29.297,7.812
28.32,40.527,12.695,23.438,83.984
34.18,38.086,6.836,19.531,74.707
48.34,36.133,5.371,30.762,52.734
52.734,36.133,0,36.133,70.801
41.992,36.133,-6.348,25.391,63.965
25.391,36.133,-9.277,28.809,51.758
20.508,34.668,-11.719,22.461,-43.945
43.457,33.691,-2.93,7.324,-47.852
49.316,33.691,-1.465,11.719,-7.324
25.879,32.715,-7.812,23.438,49.316
20.996,33.691,-11.719,22.461,38.574
25.391,32.715,-9.766,22.949,33.203
55.176,34.668,-0.488,51.758,21.973
62.988,38.574,10.254,57.617,22.461
28.32,39.062,15.137,39.062,80.078
25.879,41.016,14.16,32.227,27.832
30.762,43.945,19.531,29.297,-22.461
37.598,43.945,23.926,35.645,-26.367
41.992,41.992,21.973,33.203,9.766
32.227,41.016,23.438,42.48,4.395
22.949,40.527,28.809,40.039,-30.762
21.484,41.016,20.996,13.672,-15.625
41.016,46.387,18.066,6.348,34.18
42.48,46.875,26.855,15.625,82.52
23.438,41.504,31.738,12.695,97.656
28.32,41.016,33.203,33.203,79.59
24.902,37.598,28.32,39.062,52.246
23.438,38.086,32.227,12.207,8.301
20.508,40.039,44.434,24.414,20.508
25.879,37.598,44.922,42.48,37.109
24.902,35.156,45.41,18.066,-1.953
-4.395,30.762,43.945,-0.488,30.273
16.602,32.227,46.875,15.625,39.551
40.039,31.738,45.898,8.789,18.066
0.977,29.785,42.48,-3.418,75.195
-13.184,30.762,44.434,0.488,26.855
-14.648,27.832,41.504,8.789,-56.641
-0.977,26.367,43.457,6.348,-33.691
17.578,29.297,52.734,13.184,18.066
19.043,29.297,55.664,27.832,38.574
-6.348,23.438,56.152,16.113,49.316
-30.273,22.461,53.711,7.812,23.926
-8.301,22.949,44.922,0.977,-12.207
20.996,26.855,46.387,-7.324,-5.859
9.277,25.879,49.316,-3.418,10.742
-6.836,21.484,43.945,3.418,41.016
-11.23,25.879,35.156,-0.488,63.477
-0.488,30.762,30.273,6.836,36.621
6.348,31.738,39.551,9.277,-13.184
13.672,32.715,41.504,14.648,9.766
15.137,33.203,37.109,26.367,44.434
-10.742,28.32,34.18,10.742,68.359
-9.277,26.367,24.414,3.418,38.086
23.926,34.668,28.809,26.855,16.602
38.574,35.645,34.668,28.809,31.25
18.555,30.273,37.109,18.555,26.855
-6.836,25.391,35.645,35.645,63.477
-0.977,28.32,24.902,33.691,92.285
20.996,34.668,37.109,18.066,98.145
31.25,33.691,44.434,28.32,108.398
34.668,34.18,28.32,30.273,66.895
38.574,37.598,28.32,28.32,28.809
15.137,36.621,29.785,29.297,58.105
16.602,34.668,33.203,27.832,45.41
33.203,37.109,48.828,26.855,0.977
23.926,37.109,47.363,36.133,-28.32
21.484,37.109,41.992,41.992,2.93
18.066,37.598,40.527,29.297,9.766
26.367,39.062,34.18,20.508,-36.621
47.363,40.527,34.18,25.879,39.062
36.133,37.109,28.32,34.668,51.758
7.812,33.203,19.531,29.297,23.438
6.836,32.227,15.137,27.344,72.754
16.602,33.691,18.555,18.555,40.527
35.645,36.133,30.762,20.508,18.555
35.156,37.598,34.18,24.902,27.832
16.602,40.527,36.133,18.066,40.039
7.324,42.969,30.273,25.391,36.133
31.25,40.527,22.461,26.367,8.301
54.199,34.668,21.973,26.367,17.09
31.25,32.227,19.043,29.297,19.043
14.648,35.645,18.066,25.879,61.523
19.531,38.086,10.742,28.32,15.625
34.668,40.527,12.207,28.32,-13.184
46.387,38.086,24.414,15.137,81.055
33.691,32.715,28.32,15.137,51.758
25.879,33.203,32.715,22.949,-10.742
23.926,33.203,31.25,27.344,-20.02
24.902,31.738,31.738,25.879,40.527
41.992,34.18,42.48,25.879,27.344
44.434,37.109,49.805,29.297,-16.602
25.391,32.715,50.293,27.832,20.996
24.414,28.809,47.363,29.297,-28.809
24.414,27.832,46.875,23.438,-32.715
27.832,29.785,48.34,19.531,55.176
41.016,30.273,44.922,29.785,67.383
52.734,31.25,44.434,29.297,40.039
43.945,36.133,43.945,28.32,23.926
15.137,31.25,38.086,27.344,-14.16
32.715,27.344,43.457,29.785,-20.996
45.898,28.32,50.781,33.203,45.41
29.297,31.25,48.34,20.996,86.914
25.391,29.297,45.41,15.137,17.578
27.832,24.902,40.039,27.832,-29.297
40.527,26.855,49.316,27.832,-13.184
45.898,29.297,53.223,22.461,57.129
34.668,28.809,42.48,28.32,116.699
22.949,30.273,40.039,22.461,45.41
17.09,31.25,40.527,22.461,26.855
25.391,28.32,47.363,21.484,35.645
37.109,29.785,54.688,18.555,14.16
38.574,30.762,51.758,20.508,29.785
44.922,29.297,46.875,8.789,17.578
41.992,29.785,33.203,-4.883,33.691
27.832,31.25,31.25,6.348,10.742
54.688,33.691,39.551,18.555,10.254
58.594,32.227,41.016,24.902,1.953
20.02,28.809,39.062,18.555,-18.066
6.836,27.832,34.668,3.418,10.742
11.719,27.344,37.109,17.09,57.617
34.668,29.785,40.527,41.992,53.223
44.922,32.227,29.785,31.738,66.895
30.762,32.227,20.996,19.531,78.613
11.23,28.809,19.531,19.043,42.48
21.973,25.391,12.695,11.719,-0.488
31.738,25.879,19.043,19.043,8.301
17.578,28.809,33.203,22.461,66.406
16.602,29.785,39.551,32.227,83.984
5.859,32.227,39.551,19.531,83.984
-3.418,31.738,42.48,5.371,52.246
15.137,27.344,50.781,21.484,4.883
19.531,27.344,47.363,21.973,0.977
17.578,28.32,43.457,8.301,23.926
2.441,24.414,41.992,13.672,20.02
-9.277,22.949,35.645,22.461,21.484
22.949,26.855,41.992,10.742,25.879
29.785,25.391,51.758,15.625,39.551
14.648,20.02,42.48,41.016,12.207
13.672,22.949,33.203,26.367,24.414
14.648,28.32,32.227,9.277,23.926
35.645,30.273,36.133,18.066,47.852
34.668,30.273,35.156,20.996,70.801
18.066,27.832,34.668,20.996,62.5
9.766,24.902,31.25,26.855,8.301
16.113,23.438,20.996,24.414,-16.113
34.668,23.438,16.113,15.137,21.484
23.926,22.949,20.02,22.949,29.785
14.648,22.949,17.09,15.137,52.246
11.23,23.438,13.184,9.277,46.387
-0.488,20.996,6.836,9.766,-0.488
12.207,17.09,16.113,1.953,3.418
37.598,21.973,20.996,10.254,52.246
20.02,27.832,9.277,12.695,41.504
7.324,22.949,5.859,8.789,14.16
10.254,16.113,-4.883,-0.977,5.371
11.23,20.02,-3.418,0.977,9.277
29.785,24.902,10.254,18.066,20.996
31.738,25.391,8.789,19.531,35.645
10.254,24.902,0,19.531,91.797
3.906,22.461,-16.113,10.742,61.035
12.207,20.508,-18.555,2.441,7.324
20.996,21.973,0,12.695,12.695
31.25,25.391,1.953,14.648,-11.719
26.855,25.879,-5.371,8.789,11.719
8.789,28.809,-9.277,4.883,93.262
9.277,31.25,-11.23,5.371,57.129
25.879,28.32,0.977,18.555,-68.359
30.762,30.273,10.742,26.855,-62.5
19.043,31.738,6.348,11.719,30.273
10.254,29.785,0,1.953,15.625
8.789,26.367,1.953,8.301,-7.324
21.973,25.391,7.812,12.695,19.531
26.367,26.367,5.859,14.648,16.113
20.996,25.879,4.883,19.043,29.785
19.531,24.902,-1.953,19.531,44.434
28.809,25.879,-10.254,12.207,-7.812
42.969,31.738,-0.488,12.695,-11.719
36.133,29.785,6.348,24.414,56.641
23.438,25.879,-1.953,25.391,50.781
18.066,26.855,-8.301,21.484,52.246
20.996,25.879,-11.719,20.02,70.801
33.691,23.438,-11.719,28.809,24.902
36.133,22.461,-7.812,39.062,13.672
38.086,26.367,-2.441,34.668,79.102
33.203,27.832,-1.953,31.25,111.816
20.02,27.344,-9.766,27.832,79.102
33.691,26.855,-1.465,26.367,0.488
45.41,26.855,9.766,31.738,0.488
39.062,26.855,-3.418,36.133,0.488
28.32,26.855,-7.324,33.691,-19.043
19.043,26.367,-7.812,27.832,-15.625
32.715,25.879,0.977,28.809,-13.672
47.852,30.762,10.742,33.691,46.387
36.621,34.18,-2.441,33.203,74.707
19.531,29.785,-4.395,26.367,41.016
10.742,29.297,-6.348,23.926,25.391
20.508,33.691,-9.277,23.438,10.254
39.062,33.691,0,25.391,-37.598
33.691,33.203,0.977,35.645,-27.344
18.555,35.156,-0.488,36.621,94.238
13.184,35.156,-10.254,31.25,134.766
25.391,35.156,-12.695,35.156,70.801
49.805,36.133,-0.488,37.109,34.18
51.758,34.668,0,37.598,33.203
35.645,36.621,-3.418,43.945,26.855
28.809,38.086,-0.488,41.016,-6.836
33.691,39.062,14.648,35.156,-10.742
48.828,40.039,40.527,40.039,47.363
51.758,35.645,43.457,40.527,48.34
32.227,36.133,36.621,34.668,-32.227
30.762,41.016,34.668,34.18,-33.691
33.691,41.016,28.809,23.926,47.852
36.621,40.039,33.691,20.508,37.598
47.363,41.992,42.969,31.738,14.16
37.109,37.598,42.48,31.25,19.043
25.391,39.551,37.109,26.855,8.301
27.832,39.551,30.273,22.461,4.883
39.062,36.133,34.18,20.508,35.645
43.945,38.086,42.969,24.414,43.457
29.297,40.039,46.387,25.391,33.691
26.855,41.504,41.504,22.949,52.734
25.879,39.062,29.297,13.184,69.336
34.18,35.645,37.109,15.137,60.059
45.41,33.691,48.828,25.391,33.203
31.25,34.18,39.062,23.438,36.133
19.043,35.156,25.879,20.996,34.18
17.578,38.574,15.137,19.531,-29.297
27.832,39.551,21.973,17.09,14.648
37.109,34.668,22.949,17.09,93.75
25.391,30.762,13.672,19.531,30.273
9.766,29.297,16.602,14.16,2.441
15.625,30.273,14.648,8.789,-20.996
30.273,33.203,22.461,14.16,-68.359
36.133,36.133,27.344,21.973,24.414
26.367,34.668,16.602,18.066,88.379
16.113,37.598,16.602,11.23,12.695
10.742,41.992,17.578,8.789,40.039
18.555,36.133,20.02,7.812,66.406
36.621,33.691,35.156,13.184,56.641
33.203,34.668,39.551,17.578,33.203
13.672,36.133,42.48,17.09,44.434
6.348,37.109,40.039,12.695,28.32
17.578,37.598,38.574,6.836,3.906
36.133,40.527,46.875,16.113,47.852
40.039,41.504,51.27,24.902,19.531
25.391,40.527,50.781,16.602,52.246
16.602,39.062,38.574,10.742,64.453
27.344,38.086,32.715,11.23,32.227
35.156,37.598,38.574,12.695,34.668
30.273,35.156,39.551,20.02,41.992
20.02,37.109,38.086,22.461,2.93
11.23,39.551,33.691,17.578,68.359
9.766,40.527,21.973,16.113,48.34
20.02,42.48,24.414,18.066,-8.301
27.344,46.875,31.738,17.09,6.348
14.648,48.34,36.621,12.207,57.617
7.324,47.852,34.18,16.602,61.523
16.113,51.27,32.227,19.531,-15.137
33.203,51.758,42.969,23.438,17.578
37.109,49.805,46.875,33.203,1.953
26.855,45.41,37.598,29.297,-27.832
17.578,41.992,25.879,25.391,37.109
17.09,42.969,19.043,19.043,40.527
27.344,42.48,22.949,14.648,5.371
34.18,42.48,24.902,24.902,13.672
27.832,41.504,20.02,31.25,52.246
18.555,35.645,21.973,23.926,80.566
16.602,32.715,15.137,17.578,26.367
31.738,35.156,14.648,23.926,9.277
39.062,37.109,31.25,32.715,26.855
22.949,36.133,34.18,30.762,11.23
10.742,35.156,29.785,31.25,42.969
7.324,37.598,33.691,31.25,17.09
8.789,37.109,35.645,22.461,-57.129
24.902,39.062,33.691,24.902,6.836
28.32,43.457,32.227,34.18,41.504
15.625,40.527,34.668,33.203,56.152
11.719,36.133,31.738,23.926,79.59
16.113,36.133,35.645,21.973,12.207
27.832,36.621,43.457,30.273,21.973
27.832,35.645,32.227,31.25,62.5
19.531,32.715,28.809,31.738,6.836
16.602,30.273,27.344,29.297,19.531
21.973,29.297,27.832,25.391,50.293
35.156,31.25,33.203,23.926,-11.23
32.227,34.18,33.691,21.484,18.555
22.949,38.086,34.18,19.043,76.66
21.973,43.945,26.855,17.578,36.133
27.832,49.805,25.879,17.578,1.953
39.062,52.734,33.691,22.461,85.938
31.25,50.781,33.203,27.832,123.047
18.066,50.293,28.32,26.855,49.805
13.184,48.828,22.461,21.484,2.441
7.812,50.781,17.578,17.578,-12.695
21.484,55.176,27.344,24.414,0
31.25,59.082,31.738,31.25,5.371
23.926,58.594,28.32,25.879,-11.23
20.02,55.176,32.715,18.555,-18.066
15.625,54.688,32.715,14.16,4.883
22.949,52.734,43.945,18.066,72.266
32.227,53.711,56.641,27.832,31.738
24.414,53.223,47.363,31.738,-6.836
15.625,51.758,38.574,24.414,64.941
16.113,52.734,27.832,18.555,61.035
28.32,53.711,24.414,18.555,36.133
35.645,54.199,26.367,23.926,45.41
26.367,51.758,29.297,29.785,33.203
20.996,52.246,32.715,28.809,-1.465
18.555,54.688,31.738,20.996,-11.23
25.391,48.34,38.574,18.066,-42.969
39.062,46.387,41.016,27.344,-20.508
29.297,45.41,41.016,30.762,10.742
11.23,43.945,37.109,23.438,57.617
6.348,44.922,26.855,16.113,115.723
18.555,43.457,25.879,17.578,55.176
33.203,43.945,36.621,26.367,48.828
31.25,45.898,39.551,27.344,17.578
18.555,43.457,42.48,24.414,-51.758
11.23,43.457,48.34,20.508,-11.719
20.02,42.969,53.711,16.113,39.551
39.062,44.922,58.105,21.484,30.273
34.668,45.41,59.57,23.926,-5.859
20.996,41.504,67.871,19.531,-31.738
16.113,41.992,64.941,18.066,28.809
22.461,42.969,50.781,16.602,59.57
47.852,37.109,46.875,22.949,48.34
49.316,35.645,44.434,30.762,66.406
31.25,39.551,38.574,28.32,62.988
27.344,39.062,32.227,26.367,44.922
26.367,33.691,31.25,18.555,18.066
37.598,34.18,39.062,21.973,-13.184
46.875,34.18,35.645,33.203,88.867
42.969,36.133,23.926,34.668,93.75
32.715,40.527,15.625,32.227,53.711
23.926,34.18,7.324,20.996,98.633
37.109,32.227,7.324,21.484,67.871
51.27,36.133,6.836,36.133,25.391
39.551,37.598,-0.977,35.645,10.742
26.855,38.086,-2.93,27.832,-0.488
22.461,39.551,-9.766,24.902,-28.809
32.715,43.945,-7.812,31.738,-58.105
45.41,42.48,-0.977,39.062,-18.555
34.18,38.086,-0.488,36.621,60.059
24.414,39.062,-0.488,32.227,14.16
25.879,38.086,-0.977,25.879,-33.691
35.645,37.109,8.789,32.227,-4.883
44.434,42.969,22.949,38.086,16.602
35.645,46.875,31.25,36.133,-15.137
23.438,43.945,28.32,31.25,19.043
19.531,41.016,13.184,21.484,12.695
26.367,41.504,15.137,17.578,-20.996
37.109,40.039,23.438,23.438,-8.301
31.25,36.621,25.391,30.273,-15.625
21.484,32.227,21.973,31.25,23.926
16.113,29.785,9.277,28.32,78.613
15.625,30.273,19.043,26.367,79.59
26.367,28.809,32.227,30.273,84.473
21.973,26.367,34.668,28.809,32.227
11.719,27.832,41.504,27.344,20.02
6.836,31.25,40.039,27.344,51.758
13.184,34.18,41.016,24.902,60.547
28.809,32.715,40.527,29.785,77.148
24.414,30.762,39.551,37.109,56.152
16.113,28.809,37.598,35.645,6.348
10.742,26.855,26.367,21.484,-5.371
11.23,24.414,27.344,15.625,1.465
25.879,25.391,32.715,20.02,53.223
34.668,28.32,29.297,22.461,84.961
24.902,30.273,22.461,21.484,28.809
8.301,31.738,4.395,19.043,14.648
4.395,34.18,0.488,13.184,19.531
19.043,33.203,4.883,10.742,51.758
27.832,29.297,3.418,15.137,32.715
20.508,28.809,2.93,14.16,12.207
16.602,32.227,5.371,11.719,9.277
16.113,32.227,10.742,10.254,-55.176
27.344,31.25,9.277,7.812,-12.207
34.668,34.668,9.766,11.719,95.215
26.367,38.086,18.066,20.508,88.867
19.531,33.203,13.672,21.973,56.152
7.812,35.156,8.301,18.066,26.367
17.578,43.457,11.23,19.531,58.594
31.738,46.875,6.836,28.809,73.242
26.855,47.852,1.953,32.715,29.785
21.973,44.434,-0.488,27.344,68.359
14.16,42.48,-2.93,23.926,51.27
23.926,47.852,3.418,26.367,38.574
37.598,48.34,8.301,30.273,40.527
29.297,47.363,6.348,29.297,45.41
21.973,49.316,1.465,25.879,68.359
15.625,47.852,-3.418,18.555,83.984
22.461,43.457,3.906,12.207,82.52
40.039,38.574,19.043,21.484,1.465
36.621,36.621,18.555,31.25,-9.277
24.414,36.621,11.23,27.344,-34.18
13.184,35.156,6.836,20.508,-14.16
12.695,35.645,7.324,18.066,70.801
30.762,36.621,9.277,21.484,62.012
27.344,31.738,14.648,26.367,62.988
11.23,28.809,11.719,25.879,66.406
8.789,27.832,-4.883,18.066,44.434
15.625,27.832,-5.371,9.277,18.066
28.32,27.832,7.812,11.719,23.438
29.785,27.344,11.23,20.02,8.301
20.996,28.809,13.184,20.996,19.531
19.531,26.855,13.184,15.137,8.789
24.414,27.344,17.09,11.23,16.113
35.156,26.855,20.02,15.625,43.945
38.086,27.832,26.855,18.555,6.836
25.391,29.297,27.344,13.672,16.113
13.184,25.391,22.949,4.883,38.574
14.16,26.367,23.926,1.953,-4.883
23.438,31.25,23.438,3.906,-70.312
24.902,30.273,21.973,5.371,41.504
19.043,29.297,15.137,10.254,83.496
10.254,27.344,-0.977,7.812,21.484
5.371,22.461,-4.883,0,42.969
17.578,23.438,9.766,8.301,32.715
20.508,22.949,13.672,17.09,11.23
7.812,20.508,17.09,20.996,10.254
1.465,21.973,15.625,19.043,15.625
5.371,21.484,5.371,13.184,29.785
15.625,21.973,12.207,13.672,36.133
25.879,25.879,22.461,20.996,67.383
13.672,25.879,25.879,25.391,81.543
-1.953,23.438,28.32,20.508,24.414
-1.953,23.438,17.09,11.23,33.203
15.137,22.461,18.555,11.23,-2.441
24.414,24.902,25.879,22.949,-6.836
10.254,32.227,28.32,32.227,58.105
-0.977,33.691,27.832,24.414,-7.324
-1.465,32.715,20.508,12.695,-17.578
12.695,33.203,23.926,13.672,6.836
21.973,32.715,28.32,22.461,13.672
14.648,33.203,25.879,20.508,-0.488
5.859,34.18,27.832,12.207,-20.508
-5.859,29.297,24.414,21.484,-42.48
-3.418,31.738,20.996,18.066,29.297
23.438,41.016,20.996,13.184,96.68
25.879,46.387,13.184,23.926,-3.906
25.879,46.875,9.766,32.227,-31.25
25.391,46.387,11.719,24.414,41.016
13.184,44.434,19.531,16.602,50.781
21.973,41.504,26.855,19.531,33.203
32.715,41.504,35.645,26.367,80.566
27.344,41.504,33.203,32.715,74.219
13.672,40.039,20.02,27.832,76.66
13.672,39.062,18.066,21.484,7.812
30.762,40.527,30.273,24.414,-4.395
42.969,40.039,39.062,25.391,69.336
39.551,38.086,35.645,23.438,32.227
20.996,32.227,28.809,20.02,-15.625
9.766,30.273,28.32,17.09,-81.055
17.09,33.203,31.738,15.137,-54.688
34.18,38.086,27.832,17.09,23.926
28.32,38.086,29.785,22.461,34.668
9.766,32.715,29.785,20.508,-5.371
11.23,35.645,21.484,9.277,7.812
30.273,39.551,27.832,13.672,38.574
43.457,36.621,27.344,21.973,45.41
19.043,32.715,26.855,20.508,56.641
3.418,30.273,41.016,22.461,72.266
14.648,30.273,37.109,20.508,56.641
26.855,30.762,41.504,30.762,-15.625
32.715,28.32,47.852,42.969,-1.465
28.809,29.785,43.457,36.133,23.926
12.695,34.668,39.062,36.621,40.039
2.441,35.156,31.25,32.715,64.453
18.555,32.715,32.227,24.902,26.367
41.992,29.785,41.504,26.855,-14.16
27.832,30.273,39.551,17.09,-58.105
8.789,30.273,38.086,19.043,-101.074
14.648,29.785,35.156,26.367,-31.25
12.695,29.785,36.133,20.02,60.547
19.531,28.32,37.109,25.391,74.219
18.066,28.809,38.574,24.902,59.082
2.441,30.762,39.551,5.371,14.16
4.883,30.762,19.531,-2.441,27.832
12.207,31.738,16.602,-7.324,79.59
14.16,30.273,27.832,-3.906,71.289
18.066,31.738,20.508,-0.488,44.434
12.207,34.18,19.531,12.695,41.504
13.184,31.25,16.113,7.812,-11.719
12.695,29.785,14.16,-12.207,1.953
6.348,26.855,21.973,-1.465,64.453
12.695,24.902,14.16,8.301,57.617
-0.488,20.996,3.906,-11.23,86.426
-1.953,20.508,3.418,-6.348,56.152
7.324,28.809,7.812,9.277,76.172
22.461,32.715,9.277,-0.488,72.266
38.086,30.762,10.254,6.348,19.043
11.719,24.902,16.113,14.648,16.602
-10.742,20.996,15.137,-0.488,42.969
1.953,24.902,10.254,-9.277,72.754
16.602,27.832,21.484,6.348,12.207
27.832,28.809,29.785,11.23,-40.527
36.621,29.785,36.621,20.508,3.418
12.695,28.809,35.156,29.297,31.738
-5.371,28.809,23.926,4.883,67.383
21.973,28.32,25.391,0,36.133
29.297,29.785,23.926,6.836,-5.371
18.066,30.273,25.391,12.695,44.922
18.066,24.902,32.227,13.184,41.504
15.625,23.438,41.016,8.301,34.668
26.855,26.367,49.805,16.602,20.02
35.156,26.367,48.34,20.508,32.227
20.02,25.391,42.48,15.137,39.062
15.137,32.227,40.527,13.672,11.719
11.23,34.18,44.434,17.09,15.625
21.484,36.621,52.734,22.461,30.273
36.133,36.621,62.5,22.949,94.727
25.879,33.691,48.34,14.16,80.078
20.996,33.203,33.691,14.648,62.012
13.184,32.227,31.25,17.09,69.824
20.508,34.18,32.227,7.324,45.41
35.645,34.668,41.016,3.906,12.207
20.508,36.621,46.875,13.184,18.555
12.207,38.574,40.039,9.277,29.297
5.371,35.645,37.109,4.883,16.602
12.207,37.109,37.109,11.23,4.883
32.715,37.109,44.434,16.113,12.695
28.809,31.738,39.551,14.648,8.301
14.16,27.344,34.18,15.137,13.672
17.578,30.273,38.574,5.859,-41.992
24.902,34.668,42.48,3.906,-9.766
26.855,32.715,46.387,20.996,-4.395
32.715,31.738,51.27,23.926,-33.691
21.973,29.297,55.664,20.02,83.008
7.324,25.391,48.828,12.207,70.801
12.207,27.344,48.34,5.859,38.086
43.457,33.203,53.711,8.789,44.922
51.27,36.621,57.617,6.836,33.203
20.508,33.203,58.105,9.277,47.852
10.254,32.227,49.805,4.395,70.801
5.859,33.691,50.293,-4.883,59.57
14.16,28.32,53.223,-6.348,6.348
26.855,20.996,52.734,1.953,0.488
23.438,22.949,51.758,8.301,40.527
12.207,29.297,48.828,0.977,28.32
16.602,28.809,51.27,6.348,10.254
31.25,29.785,55.176,15.625,22.949
27.344,26.855,56.641,13.672,90.332
21.973,28.809,58.105,21.484,-2.441
17.09,29.785,57.617,29.785,-20.508
17.09,26.367,54.199,19.043,66.895
31.25,28.32,60.547,19.043,83.496
36.621,22.461,58.105,18.555,78.125
27.344,16.602,50.781,7.324,45.41
14.648,16.602,52.246,17.578,38.574
3.906,14.16,53.711,22.949,71.289
16.602,8.301,62.5,20.508,20.02
30.762,5.371,58.594,28.809,-13.672
22.461,7.812,52.246,30.273,-35.645
12.207,5.371,49.316,29.785,-23.926
8.789,4.883,38.574,17.578,28.809
5.859,4.395,35.156,-7.812,37.598
16.113,-0.488,36.133,12.695,32.715
22.461,-0.488,36.133,27.344,-1.465
26.367,9.277,30.762,17.09,-10.254
22.461,11.719,27.344,22.949,-7.324
25.391,6.348,29.785,24.902,8.301
41.992,5.371,28.809,39.062,22.949
40.527,9.766,20.02,46.387,-30.273
34.18,10.742,11.719,30.273,-83.984
22.949,10.254,17.578,23.438,2.93
20.02,12.207,14.648,14.648,99.121
31.25,13.184,10.742,19.531,29.785
46.387,16.602,19.531,35.645,-25.879
34.18,15.625,21.973,36.133,62.5
4.883,8.301,25.391,32.227,114.746
9.766,7.812,22.949,28.809,38.086
26.367,13.672,21.973,25.879,10.742
32.227,16.602,20.996,38.086,44.434
37.109,22.461,8.789,45.41,16.602
39.062,23.926,2.441,37.109,45.898
33.691,23.438,6.348,31.738,24.902
41.504,26.855,12.207,40.039,2.93
48.828,28.32,9.766,51.27,46.875
36.133,31.25,17.09,57.617,27.832
29.785,33.203,14.16,50.293,16.602
28.809,29.297,1.465,43.457,28.809
54.199,33.203,11.719,51.758,61.523
65.43,32.715,33.203,63.965,43.945
41.992,32.715,40.527,60.059,58.105
34.668,36.621,35.645,43.457,106.934
26.855,32.715,36.133,45.898,91.309
39.062,36.133,31.738,42.48,66.895
67.383,41.504,26.855,41.504,80.078
54.199,40.527,26.855,51.758,59.082
42.48,45.898,21.484,43.457,41.504
41.504,48.34,20.02,32.715,22.461
29.297,41.016,22.949,41.016,-34.668
36.133,36.621,23.926,38.086,9.766
53.711,38.086,19.043,30.762,37.598
41.992,36.133,14.648,20.02,-45.898
8.789,32.715,17.09,3.418,18.555
10.254,35.156,21.973,7.324,123.535
28.809,36.621,27.832,19.531,44.922
33.203,39.062,29.785,26.367,13.672
20.508,38.086,23.926,18.555,68.848
3.906,35.156,20.996,5.859,19.531
9.766,37.598,21.484,-2.441,-35.156
22.949,38.574,26.367,4.395,-12.207
17.578,40.039,38.574,21.484,33.203
9.277,41.504,33.203,14.16,11.23
0.977,38.086,16.602,11.23,12.207
-10.742,38.086,17.09,0.488,0.488
2.441,39.062,21.973,0.488,-19.531
13.184,40.527,19.043,7.812,11.23
10.742,42.48,13.184,3.906,-0.977
11.23,41.016,17.578,7.324,15.625
6.348,40.527,25.391,23.926,65.918
19.043,39.062,32.715,22.949,81.055
29.785,38.086,38.574,11.719,95.703
33.691,35.156,29.297,23.438,103.027
35.645,33.691,21.973,17.578,50.293
14.16,38.086,20.508,-5.371,44.434
18.555,35.645,19.531,3.418,14.648
29.297,34.668,18.555,12.695,12.695
7.324,31.25,26.367,22.949,11.23
4.395,29.297,20.996,40.039,44.922
8.301,34.18,6.348,22.949,54.199
19.531,34.18,7.324,2.93,10.742
35.156,29.785,11.719,-0.488,38.086
32.227,35.156,5.371,7.324,18.555
5.371,32.715,4.883,20.508,-24.902
1.465,26.855,8.301,32.227,37.598
27.344,29.297,13.672,38.574,57.617
47.852,35.156,17.578,26.855,16.602
54.199,39.551,13.184,36.133,23.438
47.852,38.086,4.395,55.176,34.18
35.645,34.18,8.301,32.715,7.812
31.25,35.156,25.391,18.555,7.812
43.457,35.645,33.691,27.832,32.715
52.246,35.156,34.668,34.18,26.855
44.922,33.203,31.25,34.18,26.855
45.41,29.785,22.461,28.809,66.406
47.852,33.203,15.625,35.156,18.066
45.41,36.621,20.508,41.016,42.48
48.34,37.109,30.762,41.016,40.527
34.668,36.621,37.598,41.504,6.348
21.973,35.645,31.25,30.273,29.297
32.715,40.527,35.645,18.555,54.688
51.758,42.969,51.758,28.32,51.758
48.34,37.598,47.852,40.527,3.418
32.227,32.227,33.691,42.969,-7.812
21.484,31.25,32.715,29.785,-4.883
20.508,31.25,37.109,19.043,20.02
38.086,31.25,39.551,25.391,63.965
54.688,40.527,41.016,36.621,34.18
36.621,46.387,37.598,46.875,-17.09
22.461,46.387,31.25,47.852,26.367
23.438,43.457,32.715,38.574,32.715
30.762,38.086,43.945,37.109,34.18
40.527,37.598,42.48,44.922,75.195
22.461,39.062,38.086,39.062,60.059
21.973,41.504,32.715,31.738,13.184
39.551,44.922,29.785,28.32,23.926
40.039,45.41,35.645,36.621,48.828
36.133,42.969,35.645,27.832,56.641
26.367,40.527,33.691,9.277,58.594
24.902,39.062,20.02,10.254,66.895
26.367,38.086,5.371,7.324,73.242
30.273,38.574,14.648,20.02,-36.621
34.18,38.574,27.344,37.109,-0.977
25.879,38.574,25.391,34.18,44.922
27.344,39.551,15.137,29.297,-24.414
30.762,41.016,11.23,29.297,7.324
27.832,40.527,15.137,20.508,36.621
25.391,41.992,27.344,13.672,13.184
17.578,41.992,29.785,11.23,23.438
15.625,38.086,18.066,16.602,63.477
12.207,38.574,18.066,25.879,0.977
24.414,40.039,27.832,22.461,-10.254
50.293,40.527,38.574,27.832,29.297
26.855,40.527,42.48,31.25,-43.945
9.766,41.504,33.203,14.648,-28.809
10.742,42.48,32.715,3.418,63.477
12.207,39.062,46.387,13.672,35.156
23.926,36.133,51.27,24.414,32.715
29.297,36.621,54.688,34.18,48.828
19.043,35.645,52.246,36.133,34.18
10.742,34.668,47.363,29.297,28.32
18.066,35.645,46.875,27.832,24.902
26.855,32.715,43.457,33.203,19.043
28.809,32.715,39.062,48.828,71.289
33.203,37.598,30.273,34.668,89.844
19.043,35.645,18.066,22.949,-4.883
25.879,35.645,15.137,31.25,4.395
41.504,36.621,20.02,30.762,59.082
27.832,39.551,17.578,38.574,63.477
27.344,42.48,8.789,29.297,84.961
20.508,39.551,4.883,21.484,56.152
32.227,38.086,9.766,20.996,68.848
31.25,36.621,20.508,18.066,34.668
20.02,38.574,21.484,24.902,7.324
10.742,41.016,11.23,25.879,29.297
-1.953,40.527,4.395,19.043,-32.227
1.953,41.992,4.883,4.883,-21.484
23.926,40.039,12.695,10.742,11.719
41.016,40.527,18.555,30.273,29.297
32.227,41.992,24.902,40.527,53.711
20.02,41.016,16.602,47.363,116.699
15.137,38.574,8.301,27.344,83.496
33.203,41.992,14.648,10.742,-8.789
41.016,41.992,25.879,9.766,30.762
21.973,36.133,22.461,1.465,41.992
10.254,33.691,5.859,5.371,18.066
10.254,30.762,5.371,8.301,7.324
17.578,29.785,13.672,12.695,18.555
27.344,32.227,12.207,15.137,0.977
20.508,32.715,10.742,19.531,-33.691
12.207,32.715,13.184,21.484,-9.766
9.277,34.668,13.184,4.883,6.348
11.719,35.156,14.16,4.395,23.438
22.949,30.762,10.742,19.531,34.668
25.391,29.297,9.277,26.367,-28.32
8.789,30.273,9.766,17.09,-6.836
3.906,29.297,10.254,16.602,4.883
25.879,30.762,11.719,15.625,20.02
28.32,29.785,15.625,11.23,18.066
17.578,25.879,23.926,10.742,-12.207
13.184,25.879,22.949,8.301,18.066
2.441,25.391,10.742,-0.488,27.344
-0.488,23.438,15.625,-8.301,47.363
11.719,24.902,28.809,1.465,69.336
21.484,28.809,27.344,4.395,53.711
14.648,30.273,20.508,10.254,44.434
-3.418,27.832,21.973,11.23,23.438
2.441,27.344,34.668,-2.441,30.762
14.16,25.879,36.133,1.953,7.812
7.812,25.879,31.25,1.953,-8.301
-0.488,29.785,22.949,-9.766,52.246
-11.23,31.738,17.09,-11.23,23.926
-8.789,30.273,24.414,-10.742,17.09
4.395,29.785,36.621,-19.531,44.434
16.113,31.738,36.133,-14.648,55.664
0.488,30.762,34.668,-8.789,76.66
-2.441,30.762,33.691,-16.113,30.273
1.465,36.133,27.832,-17.09,40.527
13.184,37.109,37.598,-11.23,36.621
35.645,37.109,44.922,17.578,8.789
26.855,40.527,34.668,23.438,20.996
18.555,40.527,25.391,9.277,50.781
8.301,38.086,23.926,14.648,47.363
18.066,37.598,29.297,27.344,-13.184
45.898,41.016,36.621,39.062,1.953
37.598,43.457,38.086,35.645,-1.953
20.996,44.434,29.297,10.742,3.906
4.883,41.992,23.926,10.742,20.508
4.883,39.551,26.367,7.812,7.324
26.367,37.109,25.391,0.488,56.641
14.648,35.645,23.926,10.254,42.969
10.742,38.086,18.066,22.461,41.016
14.648,38.574,15.137,8.789,53.223
5.859,32.227,21.973,-15.137,29.297
6.348,28.32,26.855,-6.348,-12.207
4.395,32.227,25.391,0.488,-45.898
3.418,31.25,29.785,1.465,45.898
1.465,28.809,25.879,1.465,59.57
10.254,33.203,27.344,4.883,53.223
29.297,34.668,41.504,8.789,63.477
21.484,32.227,51.27,21.484,40.039
15.137,33.691,45.41,21.973,35.645
17.09,38.086,36.133,20.508,-2.441
15.625,39.551,37.109,12.695,-20.996
25.391,38.574,40.527,13.672,-13.672
34.668,38.086,42.48,24.414,-1.465
26.855,40.039,45.898,20.996,42.48
15.625,39.551,43.945,18.555,30.273
17.578,34.668,40.527,12.207,34.668
36.133,31.738,41.992,6.836,18.555
34.18,32.227,44.434,15.625,-35.156
18.555,32.715,38.574,19.531,-19.043
20.508,29.785,26.367,12.207,12.207
20.996,28.32,19.531,10.742,64.453
23.926,27.344,21.484,10.742,38.574
31.738,24.414,25.391,10.254,54.688
29.297,27.344,20.508,14.648,113.281
15.137,29.297,10.254,14.16,61.035
6.836,28.32,9.277,4.395,9.766
16.602,27.344,17.09,9.277,-2.93
33.203,26.367,18.555,13.184,-0.977
25.391,27.832,21.484,10.254,3.906
10.742,28.809,16.602,6.348,16.602
13.184,28.32,9.766,-0.977,32.715
25.879,31.738,16.602,-0.488,61.523
34.18,28.32,16.113,8.301,101.074
26.367,22.949,13.184,9.766,41.504
13.672,22.461,8.301,10.254,-22.949
1.465,21.973,8.789,3.418,-4.395
9.766,27.832,11.719,-2.93,-4.883
26.855,32.227,9.277,6.836,31.25
26.855,35.156,12.695,15.137,52.246
21.973,37.598,18.066,10.254,62.5
20.02,36.133,24.902,3.906,74.707
27.832,34.18,26.855,11.719,1.465
41.016,30.273,17.578,24.414,-32.227
42.969,28.32,20.996,27.344,5.859
28.32,30.273,20.996,20.996,59.57
9.766,29.297,18.555,22.461,24.414
19.043,30.762,31.25,18.066,-1.465
37.109,35.156,51.27,9.277,50.781
40.039,37.109,59.57,15.137,58.105
38.086,36.133,54.199,13.184,24.902
25.879,34.668,55.664,11.719,-12.207
18.066,36.133,58.105,14.16,-57.129
37.109,38.574,52.246,20.02,-19.531
50.781,39.062,42.48,26.855,19.043
38.086,38.086,30.273,23.926,50.781
36.621,38.574,21.484,13.672,86.426
40.039,40.527,34.668,9.277,50.781
47.363,39.062,48.828,14.16,50.781
54.199,34.18,49.805,20.996,37.598
40.527,27.344,47.852,26.855,11.23
35.645,24.902,46.875,26.367,13.184
29.297,27.344,44.434,25.391,-6.348
36.621,30.762,37.109,31.738,-18.066
47.852,35.645,48.34,39.551,-12.695
40.039,39.551,56.641,40.039,-36.133
39.551,43.457,58.594,39.062,70.312
32.715,43.457,62.988,30.762,90.332
31.738,42.48,63.965,27.832,-3.906
43.457,41.504,64.453,34.668,15.625
41.992,39.062,61.035,30.273,41.992
31.25,33.691,49.805,25.391,27.344
22.461,29.297,45.41,22.949,23.926
31.738,30.273,49.805,23.438,17.578
43.457,32.227,53.711,30.762,34.668
41.016,35.156,43.457,34.668,33.691
31.738,35.645,38.086,30.762,9.277
26.367,28.809,56.152,34.18,51.27
50.781,28.32,59.082,45.898,73.73
59.082,36.621,55.664,33.691,13.184
34.18,40.039,61.523,16.602,-29.297
19.043,35.156,56.152,17.578,14.16
17.578,37.109,53.223,13.672,28.809
21.484,42.969,51.758,2.441,6.348
39.062,41.992,49.316,8.301,23.926
43.457,46.387,47.852,6.836,8.789
25.879,45.898,38.086,-0.488,8.301
18.555,45.898,25.391,-1.465,21.973
29.785,48.34,21.484,4.395,9.277
35.645,49.316,19.531,6.836,32.227
34.668,55.176,20.02,-7.812,42.48
34.18,53.711,20.508,-2.441,63.477
28.32,50.781,14.16,0,70.312
37.598,52.734,20.996,0.977,26.367
51.758,51.27,27.344,13.184,-18.066
41.016,46.875,29.297,8.301,-2.441
28.32,45.41,27.832,12.695,26.855
15.625,41.992,23.926,20.996,49.316
12.695,37.109,20.996,9.277,37.598
31.25,38.086,16.602,7.324,-6.348
39.062,41.016,26.367,15.137,-16.602
43.457,40.039,30.762,11.23,39.062
33.203,39.551,18.555,14.16,1.465
19.531,40.039,18.555,18.066,12.207
20.02,39.551,35.156,3.906,73.242
30.762,38.086,39.551,8.301,81.055
27.344,37.109,33.203,14.648,-4.395
17.578,36.621,35.156,12.207,-49.316
16.602,35.156,36.133,8.301,-43.945
25.391,34.668,32.227,15.137,-15.137
50.293,37.598,33.691,17.09,11.23
40.039,37.109,29.785,13.184,4.883
24.414,34.668,24.414,17.09,22.461
23.438,29.785,15.137,17.09,-6.348
27.832,29.785,5.859,13.184,-18.555
47.363,38.086,9.766,19.043,43.457
40.527,39.062,16.602,34.668,49.316
25.879,39.062,10.254,25.391,73.242
23.438,40.527,-0.977,14.648,22.949
26.367,41.504,-0.488,10.254,-11.23
37.109,36.621,13.672,11.719,35.156
39.551,35.645,24.414,23.926,61.523
32.715,36.621,20.02,27.832,16.602
24.414,33.203,21.484,17.578,17.578
20.02,26.855,26.367,2.441,75.195
26.367,25.879,23.926,-0.977,67.383
31.738,31.738,19.043,7.812,66.406
25.879,31.738,7.812,13.672,62.5
14.648,29.297,5.371,13.672,11.719
21.973,30.273,12.207,14.648,-15.137
41.992,35.645,18.066,22.461,3.418
41.504,36.621,22.949,27.344,11.23
26.367,36.133,22.461,15.625,18.066
11.23,37.109,22.461,10.742,52.734
12.207,33.203,19.531,9.277,23.926
25.391,29.297,15.625,14.16,-15.137
36.621,30.762,24.414,26.367,10.742
21.973,29.297,23.438,26.367,41.016
9.766,29.297,16.602,29.785,-10.254
14.648,36.621,23.438,24.902,4.883
43.457,39.062,35.156,23.438,42.969
49.316,37.598,38.574,29.297,-12.207
18.555,41.016,35.156,20.508,-3.418
3.418,40.039,36.133,20.508,50.781
7.324,41.992,40.039,30.273,64.941
23.926,45.898,44.434,21.484,47.363
31.25,44.922,44.922,10.254,-2.441
17.578,37.598,36.621,6.348,-32.227
5.371,36.621,28.32,-0.488,18.066
-5.371,37.598,22.949,-14.16,43.457
-0.488,41.992,37.598,-15.625,47.363
11.719,46.387,50.293,-13.672,50.293
-8.301,38.574,49.316,-20.508,14.648
-26.855,35.156,46.875,-26.367,-4.395
-48.828,36.621,46.875,-57.617,31.25
-51.758,34.668,54.199,-70.801,55.176
-45.898,30.273,59.082,-67.871,12.207
-65.918,32.715,61.523,-84.961,40.527
-83.008,30.762,66.406,-97.656,54.688
-91.797,22.461,67.383,-102.539,22.949
-101.074,21.973,69.336,-113.77,9.277
-102.539,28.809,75.195,-122.559,-5.859
-102.051,33.203,74.707,-117.188,55.176
-102.051,32.715,57.617,-115.234,110.352
-104.004,34.18,48.828,-115.723,31.738
-99.121,38.086,62.5,-109.863,20.508
-92.285,40.039,66.895,-117.676,75.684
-91.797,37.598,57.129,-110.352,54.688
-96.191,36.621,47.363,-104.492,50.293
-104.492,36.133,55.176,-122.07,47.852
-113.77,36.133,66.406,-133.789,32.715
-92.285,38.574,59.57,-125,40.527
-75.684,41.992,59.57,-107.422,69.336
-93.75,36.621,71.289,-108.398,58.594
-105.957,32.715,77.637,-113.281,-2.93
-93.75,40.039,69.824,-111.328,27.344
-66.895,42.969,72.266,-102.539,12.695
-49.316,40.527,91.797,-83.984,10.742
-54.688,40.527,86.914,-68.848,66.406
-52.734,44.922,66.895,-64.453,46.875
-34.668,50.293,39.062,-53.223,-4.395
-19.531,47.852,46.875,-41.016,13.672
-11.23,42.48,54.688,-34.18,35.645
-7.812,40.527,22.949,-27.832,82.031
-4.395,35.645,15.137,-17.09,71.777
2.93,32.715,33.691,-7.324,35.156
23.926,34.668,32.227,5.371,33.203
51.27,35.156,16.602,29.297,68.359
52.734,28.32,29.785,33.691,94.727
45.898,24.414,40.527,28.32,34.18
44.922,24.414,35.645,29.297,-10.742
56.152,26.855,35.156,35.645,7.324
70.801,32.227,32.227,41.016,58.105
73.73,33.691,20.02,52.246,95.215
70.801,28.32,18.555,61.035,62.012
62.988,20.996,17.09,60.547,30.762
71.777,24.902,12.695,67.383,-2.441
86.426,29.297,25.391,75.684,41.504
82.031,29.785,23.926,73.73,-7.812
72.266,28.809,9.766,72.266,-78.125
66.895,29.297,15.137,73.242,3.906
70.312,25.879,22.949,72.754,18.555
95.215,26.855,9.277,80.078,-28.809
99.609,32.227,3.906,86.426,-23.926
81.543,29.297,14.648,82.52,16.602
74.219,33.691,19.043,75.684,33.203
75.684,36.133,14.648,73.242,-10.254
91.309,33.691,9.766,77.637,-20.02
97.168,36.133,11.719,84.473,36.621
81.543,36.621,12.207,80.566,-12.207
72.754,39.062,16.113,69.336,-36.133
76.66,40.039,28.32,66.895,73.242
87.402,35.156,30.762,68.359,83.008
89.355,38.086,25.391,68.359,19.531
81.543,41.504,18.555,73.242,-34.18
77.148,38.086,24.414,76.66,-20.02
69.824,37.598,31.25,72.754,47.363
75.684,41.992,26.855,78.125,77.148
85.938,43.945,24.414,88.379,111.328
75.684,43.457,17.578,87.402,57.129
67.871,43.945,9.766,82.031,-3.906
69.336,41.992,16.602,78.125,21.484
79.59,41.016,26.855,81.543,43.945
87.402,41.016,20.996,88.379,96.191
78.125,38.574,4.883,85.449,87.891
71.289,38.574,5.859,79.102,46.875
65.918,38.086,19.043,75.195,80.078
72.266,37.109,20.508,79.102,74.219
88.867,42.48,20.02,81.543,6.348
76.66,41.016,20.02,76.172,10.254
66.406,35.156,17.09,77.148,49.805
64.941,35.645,11.23,77.148,37.598
64.941,33.691,6.836,70.801,-10.254
73.242,30.762,12.695,71.289,29.297
64.941,33.203,17.578,71.777,44.922
51.758,35.645,4.395,62.012,-15.137
47.363,34.668,-7.812,53.223,56.641
48.34,34.668,-1.465,56.152,59.082
64.941,36.621,6.348,62.5,2.441
68.848,36.621,9.277,62.988,20.508
62.012,37.598,4.395,56.152,63.477
54.688,37.598,3.418,51.27,94.727
59.082,37.109,5.859,57.617,55.176
75.195,37.598,2.441,58.105,-16.113
72.266,34.18,5.371,54.688,43.945
67.383,34.18,-2.93,57.617,85.938
66.406,38.086,-10.254,51.758,4.883
64.941,41.504,-4.395,49.316,-19.043
72.754,41.504,-4.395,54.199,40.527
68.848,41.504,-5.859,53.711,93.75
50.293,42.48,-3.418,47.852,74.707
34.668,41.504,-4.883,40.039,1.465
32.715,43.457,-3.418,41.504,-5.859
49.805,42.48,7.324,51.758,66.895
59.082,41.016,11.23,47.852,36.621
48.34,43.457,5.371,38.574,-18.066
41.504,45.898,6.348,34.668,-3.418
41.504,46.875,16.602,30.762,5.371
51.758,50.781,16.602,37.598,-51.27
55.176,47.852,14.648,41.016,-28.809
43.457,42.969,9.766,39.551,23.438
40.527,41.992,12.695,37.598,-24.902
33.203,43.945,19.531,33.203,-16.113
36.133,47.363,20.508,35.156,24.414
53.223,45.898,25.391,47.852,29.785
41.992,44.434,16.113,47.852,61.035
27.832,46.875,-0.977,30.273,22.461
19.043,45.41,0.977,19.531,-28.32
30.762,45.898,13.184,25.391,-14.16
51.758,47.852,27.344,39.551,45.898
41.992,47.363,25.879,44.922,39.062
26.855,47.363,12.695,29.785,28.32
19.043,43.945,13.672,15.137,38.086
26.855,41.016,20.02,17.578,26.367
41.504,40.527,22.461,20.996,40.527
39.551,41.016,18.555,24.414,54.688
26.855,44.922,20.02,27.344,22.461
19.043,47.852,28.32,30.273,-27.832
26.855,43.945,28.32,31.25,28.32
42.48,39.551,27.344,28.32,11.23
34.668,38.086,27.344,33.203,5.859
19.043,35.156,26.367,27.832,82.031
19.531,35.645,41.992,18.555,121.094
20.996,35.645,55.664,22.461,78.125
31.738,34.668,55.664,32.715,15.137
39.551,34.668,55.176,41.504,81.055
30.273,32.227,47.852,33.691,90.82
23.438,33.203,40.527,26.367,55.664
22.949,33.203,38.574,20.02,34.668
40.527,35.645,43.457,22.949,-1.465
46.875,38.086,52.734,35.645,14.16
28.32,33.203,46.387,31.25,66.406
13.184,32.715,33.203,21.484,70.801
16.113,37.109,36.621,18.555,25.391
35.156,37.109,38.574,23.438,26.855
40.039,37.598,39.551,29.297,12.207
29.297,38.086,29.785,28.32,14.16
20.508,35.156,19.043,23.438,0
20.508,34.18,14.16,14.648,10.742
35.645,33.203,12.695,15.625,-8.789
41.016,34.18,17.09,19.043,-10.742
29.297,31.738,19.043,18.066,15.137
21.484,27.344,24.414,14.16,-11.719
22.461,28.809,21.484,4.883,29.297
30.273,28.809,25.391,4.883,30.273
28.32,31.25,35.645,7.324,15.137
17.09,36.621,29.297,8.301,26.855
9.766,35.156,24.414,9.766,21.973
9.277,32.715,26.855,1.953,37.109
15.137,30.762,31.25,-2.93,-1.953
41.016,33.691,37.109,15.625,6.348
46.387,36.133,35.156,17.09,26.367
18.555,36.621,35.156,11.23,42.969
3.418,34.668,37.598,10.742,80.078
11.23,30.762,35.645,9.277,87.402
31.738,29.785,43.945,18.066,63.477
30.762,30.762,48.34,23.438,39.062
11.719,36.133,38.086,14.648,40.039
1.953,41.016,27.344,-5.859,-1.953
11.23,41.504,29.297,-7.324,9.766
26.367,38.086,38.574,7.812,54.688
26.855,32.227,38.574,10.742,27.344
17.578,32.227,34.668,10.742,-7.812
5.371,36.133,40.527,6.348,-22.461
10.254,37.109,39.062,-4.883,-20.508
18.066,30.762,38.086,-7.812,58.105
17.09,23.926,39.551,1.465,124.023
14.16,21.973,31.25,3.906,112.305
2.441,23.926,28.809,-5.371,59.082
-1.953,27.832,30.762,-10.742,-3.906
13.672,25.879,27.344,0,8.789
15.137,23.926,26.855,4.395,42.48
0,23.926,23.438,3.418,14.648
-3.906,23.926,21.484,5.371,-1.953
-8.789,24.902,13.184,-6.836,22.949
6.348,26.855,7.324,-2.93,52.734
28.32,27.344,15.137,8.301,95.215
14.16,26.367,14.16,0.488,62.012
-7.812,23.438,14.16,-4.395,-29.297
-6.348,19.531,15.137,-4.395,-23.438
5.371,19.043,18.066,0,39.062
13.184,22.949,32.715,15.137,49.805
11.23,25.879,34.18,18.555,10.742
5.371,29.297,24.414,9.277,-7.812
0.488,32.227,23.926,0.488,9.277
12.695,36.133,21.973,6.348,24.414
22.461,39.551,27.832,6.836,37.598
13.672,40.039,27.832,4.883,-13.672
9.766,41.992,25.391,2.93,-31.738
1.953,37.109,27.832,-1.953,22.949
6.836,33.203,23.926,-1.953,49.805
20.02,33.691,27.344,13.184,23.926
19.531,34.668,30.762,13.672,26.855
4.883,37.109,27.344,-0.977,62.988
-6.836,36.133,22.949,-0.488,42.969
5.371,39.062,19.531,1.953,38.086
45.898,44.434,20.508,9.277,40.527
30.273,41.016,29.297,13.184,66.895
-9.277,38.574,32.715,17.09,68.848
6.836,39.551,36.621,8.789,-0.977
10.742,36.621,52.246,-1.953,9.766
9.766,35.645,60.547,1.465,89.355
15.137,35.156,54.688,-1.465,49.805
8.301,36.621,45.898,-6.836,30.273
6.836,39.062,38.086,-6.836,34.18
8.301,35.156,30.273,-7.324,5.859
27.832,35.156,27.832,5.371,-6.836
28.32,35.645,37.109,12.695,-14.648
12.207,31.25,39.551,19.043,9.766
12.207,34.18,29.297,11.719,45.41
25.879,39.551,21.973,-10.742,39.551
40.039,35.645,19.043,-2.93,59.57
35.156,32.227,20.508,0.977,41.504
29.297,36.133,33.203,3.418,-5.859
20.996,35.156,51.27,10.742,39.062
25.879,32.715,53.711,11.23,40.039
40.527,31.738,58.105,26.855,18.555
44.922,27.344,66.406,23.926,19.043
34.668,25.879,62.5,8.789,-10.254
20.508,26.855,64.453,16.602,-47.852
6.836,27.344,70.801,4.395,4.883
39.551,30.273,67.383,-1.465,33.203
72.266,31.738,66.406,20.508,35.645
17.578,27.832,60.547,29.785,3.418
-2.93,27.344,56.152,22.949,6.836
6.836,25.391,53.223,17.09,43.457
16.602,22.461,51.27,22.461,9.277
35.156,21.484,55.176,36.621,0.488
36.133,28.809,49.316,40.527,15.137
35.645,38.086,42.969,21.973,17.578
30.273,36.621,41.016,18.066,7.812
30.273,31.25,42.969,41.016,30.273
42.48,27.344,44.922,50.781,60.547
57.129,25.879,36.133,59.082,36.621
46.387,27.832,30.273,60.059,20.02
21.973,29.785,25.391,44.434,27.344
33.203,29.785,20.02,45.41,22.949
38.086,26.367,26.367,50.781,43.945
29.297,23.438,33.203,44.922,40.039
20.996,23.926,30.762,55.176,34.18
32.715,27.344,28.809,54.688,24.414
30.762,30.273,27.344,44.434,-21.484
26.367,26.367,29.785,36.133,-0.977
39.551,24.902,29.297,35.156,54.688
28.32,22.949,15.137,39.062,50.781
20.508,21.484,18.555,41.992,3.418
36.621,23.926,30.273,36.621,11.719
46.387,26.367,32.715,13.184,0.488
25.879,30.762,30.762,22.949,-53.223
1.465,27.832,26.367,35.645,-15.625
9.277,26.855,29.785,25.391,6.348
24.902,31.25,36.133,20.02,14.16
26.367,28.809,55.664,17.578,2.441
29.297,26.855,67.383,23.438,-22.949
36.621,31.25,55.664,20.996,-5.859
25.391,29.297,52.246,3.418,18.555
6.348,23.438,46.387,0.977,8.301
12.695,24.902,34.668,16.113,75.195
20.02,27.344,30.273,13.184,92.773
13.672,26.367,26.855,1.953,55.664
14.648,28.32,26.855,14.16,107.91
16.113,30.273,24.414,18.555,54.199
22.949,29.785,30.762,10.742,24.414
22.949,29.785,43.457,17.578,64.453
28.32,33.203,36.621,20.996,74.707
25.391,30.762,31.25,19.531,63.965
3.418,26.367,35.645,11.719,35.156
17.578,28.809,36.133,6.836,62.012
36.133,29.297,41.504,29.297,96.191
28.809,31.25,43.945,25.391,33.203
22.949,32.227,41.504,8.301,-5.859
28.32,30.273,44.922,7.324,20.02
27.344,28.809,48.828,13.184,2.93
25.391,33.203,52.734,29.297,63.965
28.809,34.668,49.316,22.461,39.062
23.438,31.738,37.598,20.02,17.578
24.902,34.18,32.715,18.555,101.562
28.809,39.551,35.645,16.602,43.945
37.598,43.945,39.062,36.621,3.906
53.223,45.898,40.527,35.645,64.453
53.223,43.457,30.762,37.109,84.473
26.855,41.504,23.926,36.133,41.992
11.719,42.48,21.484,16.602,-20.996
23.926,40.527,26.855,17.09,3.418
35.645,45.41,31.738,22.949,18.555
24.414,46.387,26.855,15.625,45.898
21.973,47.363,18.066,11.23,40.527
27.832,49.316,6.836,10.742,11.719
35.645,41.504,11.23,14.16,63.965
36.621,40.527,24.902,12.695,34.18
28.32,46.387,18.555,9.766,15.137
23.926,43.457,11.23,12.695,-21.973
23.438,40.527,22.949,11.719,1.465
34.18,41.992,26.855,12.695,28.32
47.363,40.527,20.02,15.137,24.902
36.133,35.645,15.625,15.137,-14.648
17.578,31.738,21.484,10.254,-31.738
10.254,34.18,21.484,0,17.09
19.043,36.133,18.555,4.883,6.348
38.086,32.715,25.391,6.348,41.016
21.973,30.273,18.066,-10.254,62.012
13.184,33.691,8.301,4.395,45.898
19.043,36.621,14.16,13.672,30.273
20.508,31.25,20.02,2.93,1.953
36.621,29.785,33.691,17.09,26.367
20.508,27.832,41.016,31.25,27.832
-11.23,27.344,40.527,20.508,1.953
5.371,31.25,44.922,16.602,-0.977
21.973,27.832,54.199,25.879,-5.859
36.133,28.809,52.734,17.578,-43.457
33.203,29.785,38.086,28.809,-60.547
20.996,28.809,29.785,44.922,-29.297
21.973,31.738,30.762,33.203,41.504
20.02,30.273,40.527,28.809,96.191
29.297,29.785,42.969,29.297,61.035
33.203,31.738,36.621,38.086,43.457
37.109,34.668,35.645,32.227,67.871
39.062,37.598,31.738,24.902,-3.418
38.574,34.668,26.367,22.461,-25.879
27.344,26.855,35.645,18.066,30.273
31.25,27.832,36.621,30.762,-13.184
25.879,25.879,42.48,20.508,16.602
19.043,29.297,46.875,16.602,50.293
17.578,36.621,40.039,23.926,16.602
46.387,39.062,43.945,20.02,50.781
50.293,38.574,46.875,38.086,78.125
7.324,34.18,39.551,39.062,55.176
9.766,38.574,31.738,30.762,30.762
20.02,43.945,33.203,26.855,-23.926
32.227,39.551,39.062,26.855,-13.672
39.551,36.133,34.668,22.461,11.719
24.414,39.551,34.18,17.09,-0.488
16.602,37.598,43.457,14.16,-40.527
14.16,34.18,42.48,12.207,-23.438
25.879,37.598,38.086,24.414,47.852
35.645,41.016,36.621,26.855,37.109
27.832,39.062,33.691,24.414,35.645
21.484,41.992,40.527,25.879,16.602
6.348,42.969,50.293,18.555,36.133
24.414,42.48,43.457,23.438,35.156
49.805,41.504,43.945,37.109,7.324
34.668,39.062,44.922,30.273,18.066
35.156,41.992,37.109,30.273,30.273
46.875,43.945,36.621,33.691,16.113
39.062,38.574,54.199,24.414,-18.555
41.504,32.227,63.477,27.832,58.105
28.809,27.832,49.805,25.879,38.574
18.555,28.32,41.504,35.156,17.09
19.531,31.738,46.387,26.855,21.484
41.504,35.645,49.805,14.648,27.344
59.57,37.598,49.805,33.203,76.172
40.039,35.645,44.922,44.922,59.082
31.738,39.062,39.551,23.926,28.32
33.203,39.551,41.992,0.977,1.953
28.809,36.621,43.457,12.695,26.367
41.992,38.574,53.223,35.645,13.672
44.922,36.621,56.641,44.434,15.137
28.809,35.156,50.781,37.598,65.43
28.32,32.715,47.852,20.02,72.754
26.367,31.25,48.828,30.273,78.125
33.691,30.762,51.27,33.691,10.742
27.832,28.32,52.246,21.973,-47.363
17.578,26.855,48.34,16.113,12.207
13.672,32.227,46.875,2.441,48.34
16.602,34.18,41.992,-1.465,-10.254
22.949,28.809,37.598,5.371,9.766
31.738,27.344,35.156,15.625,34.668
17.578,23.438,29.785,12.695,-14.648
7.324,20.996,27.832,4.395,1.953
20.508,23.926,26.367,12.207,46.387
20.508,22.949,36.133,12.695,48.828
11.23,17.578,41.016,16.113,1.953
14.648,22.949,43.945,17.578,-2.93
15.625,29.785,43.945,17.578,25.391
18.555,26.855,38.086,21.973,0
30.762,24.902,36.133,12.695,-37.109
29.297,26.367,37.109,16.602,21.484
29.297,27.832,35.156,24.414,32.227
14.16,29.297,31.738,20.508,28.32
-2.441,31.25,33.691,15.137,67.871
10.742,26.367,41.992,26.855,42.48
31.738,23.926,48.828,37.598,19.043
43.457,33.203,42.48,23.926,21.973
23.926,37.109,40.527,12.207,21.484
10.254,38.086,46.875,2.441,14.648
15.625,35.156,53.223,5.371,60.059
29.297,32.715,66.406,20.02,57.617
37.598,32.715,63.477,31.25,2.93
44.434,31.738,59.57,46.387,30.762
25.391,28.32,56.641,26.855,95.703
16.113,29.297,41.992,3.418,64.453
23.926,31.25,45.41,17.578,72.266
27.832,33.203,40.039,15.137,98.145
32.227,34.668,32.715,5.859,61.523
10.742,32.715,36.133,9.766,23.926
11.23,30.762,30.273,13.672,9.277
53.711,31.738,32.227,21.973,-20.02
48.828,31.25,24.414,30.273,-37.109
19.531,30.273,14.16,20.996,-22.949
14.16,34.668,22.461,12.207,-46.875
21.484,32.715,31.738,19.531,-22.461
35.645,24.902,32.227,29.297,13.184
38.574,23.438,20.996,34.18,10.742
18.555,27.832,12.207,22.949,1.465
26.855,28.809,4.883,13.184,-0.977
26.855,26.367,0.488,13.184,29.297
13.672,22.949,6.836,16.602,52.734
21.973,20.508,10.742,13.672,58.594
5.859,19.043,6.836,8.301,98.145
10.254,20.508,4.395,18.555,63.477
18.066,22.949,0.977,14.648,-3.906
20.508,21.484,1.465,10.254,28.809
36.621,20.996,8.301,24.902,46.387
31.738,27.344,3.906,14.16,28.32
21.973,27.344,0.488,4.395,1.953
27.832,25.879,6.348,9.277,-3.418
34.668,26.367,13.184,9.277,61.035
33.691,27.344,16.602,10.742,41.016
25.391,28.32,14.16,10.742,56.152
14.16,33.203,3.418,11.23,73.242
5.371,39.062,0,8.789,60.547
5.371,39.062,3.418,0,31.25
20.508,42.48,9.766,2.93,7.812
16.113,42.48,0.488,14.16,17.09
5.371,43.945,-10.742,11.719,-17.578
25.391,48.828,-2.441,13.184,-2.441
40.039,49.316,0.488,30.762,58.594
31.25,49.316,2.441,29.297,53.711
23.438,51.27,3.906,18.555,28.809
14.16,48.34,6.836,16.113,13.184
17.578,47.363,3.906,18.066,55.664
33.691,47.852,6.348,29.785,83.984
41.504,44.434,22.461,39.062,4.395
44.922,44.922,26.367,23.926,-4.883
32.715,44.922,23.438,5.859,62.012
3.906,41.504,20.996,10.742,39.551
12.695,41.992,22.949,16.602,37.109
35.156,40.527,23.438,26.855,73.242
37.109,40.039,14.648,31.738,31.25
27.832,42.48,18.555,22.949,-7.812
9.766,41.016,20.996,18.066,6.836
11.23,34.668,12.207,13.184,36.133
39.062,34.18,19.043,20.508,49.316
35.645,35.645,25.391,32.227,32.227
10.742,32.227,25.879,29.785,-0.488
10.254,31.25,24.902,20.508,5.371
18.066,32.715,24.414,16.113,25.391
24.414,30.762,34.18,14.16,16.113
41.504,29.297,33.203,17.578,23.438
34.18,30.762,25.391,18.555,54.199
11.719,33.203,23.438,20.508,79.59
9.277,32.715,21.484,21.484,42.969
17.578,31.738,26.855,12.207,1.953
19.043,34.18,36.621,16.113,74.707
17.578,36.621,36.621,17.09,53.711
25.879,39.062,34.668,13.672,-5.371
24.902,35.156,38.086,21.484,65.43
24.414,31.738,43.457,10.742,53.711
30.273,28.809,55.664,12.695,13.672
25.879,26.855,57.129,26.855,19.043
27.344,29.785,50.781,19.531,19.531
24.902,29.297,47.363,7.812,-5.371
27.344,30.762,46.875,-0.488,-64.941
39.062,30.762,66.406,15.137,-6.348
24.414,29.297,59.57,26.367,36.133
10.254,33.203,39.551,20.508,10.742
8.301,31.25,43.457,10.742,42.48
12.695,31.25,42.48,0.977,54.688
29.785,36.133,37.598,9.766,19.531
35.156,38.574,34.18,11.719,-19.043
20.508,37.598,33.691,7.324,-44.922
10.742,37.109,39.062,2.93,9.766
19.531,39.551,36.621,-2.441,59.57
48.828,47.363,34.18,22.949,-15.137
61.035,43.945,37.109,35.156,-28.809
24.414,30.762,49.805,14.16,8.301
-11.23,23.926,59.082,7.324,13.184
-11.719,22.949,64.941,-0.977,34.668
5.859,21.484,68.848,-4.883,-2.93
5.859,17.09,58.594,-0.977,-22.461
-5.859,12.207,52.246,-2.441,57.129
-14.648,7.812,53.711,9.277,42.969
-21.484,6.836,54.688,10.742,-32.715
6.348,8.301,57.617,5.371,18.555
14.16,6.348,51.27,21.973,30.273
-4.883,4.883,41.992,24.902,36.621
2.441,10.742,43.457,23.926,23.926
-6.836,16.113,40.039,11.23,27.832
-5.859,13.672,40.527,15.137,19.531
20.02,16.113,41.504,40.039,-53.223
12.695,21.484,39.551,19.043,46.875
-14.16,16.602,38.574,0,107.422
-13.672,16.602,33.203,20.02,86.426
6.348,22.949,36.133,26.367,109.375
24.902,20.996,43.457,23.438,10.742
20.996,21.973,42.48,30.273,-5.859
-1.465,20.508,35.645,32.227,62.012
14.648,20.02,39.062,41.992,16.113
33.691,25.879,43.945,34.18,28.809
33.691,25.879,44.922,20.02,52.734
31.738,22.949,41.504,31.738,13.184
16.602,22.949,45.41,36.621,41.016
2.93,21.484,45.41,30.273,41.992
19.043,21.484,37.109,45.41,6.348
45.41,29.785,47.852,49.316,48.828
43.457,30.273,42.48,24.902,40.039
32.715,25.879,35.156,27.344,-0.977
26.855,28.809,37.109,44.434,14.648
46.387,33.203,30.762,59.57,30.762
60.547,33.203,29.785,41.016,8.789
29.297,31.25,26.367,14.648,-13.184
26.367,26.855,24.414,31.738,-1.465
18.555,20.996,28.32,40.527,76.172
34.18,25.879,29.785,40.039,38.574
52.246,29.297,27.832,55.664,5.859
54.688,29.785,23.926,46.387,24.902
52.734,32.227,26.855,27.832,11.23
44.922,33.203,29.297,28.32,50.781
38.086,27.832,35.645,44.922,17.578
46.875,28.32,40.527,38.574,-59.57
51.27,32.715,37.598,23.926,-9.766
46.387,33.691,37.598,37.109,31.738
47.852,34.18,38.574,40.527,0
39.062,35.645,41.504,49.805,0.488
42.969,38.574,46.387,46.875,4.883
56.152,39.062,45.41,48.828,33.203
47.852,40.039,37.109,42.969,63.477
28.809,38.574,39.062,27.832,76.172
23.438,39.551,46.387,29.297,66.406
27.832,40.039,47.852,41.504,1.465
46.875,43.945,40.527,36.133,-20.996
44.434,43.457,31.25,29.297,35.645
23.926,39.551,32.227,32.227,73.242
16.602,40.527,28.809,26.367,74.707
35.645,40.039,23.926,29.785,-8.301
49.805,41.016,35.156,40.039,-21.484
32.715,43.457,35.645,38.574,35.645
24.414,43.457,31.25,27.344,15.137
8.789,41.016,33.203,21.973,-19.043
2.441,44.434,32.227,20.996,-22.949
33.203,45.898,31.738,22.949,21.484
20.02,41.504,20.508,11.23,63.965
1.953,39.062,20.996,10.254,75.195
0.977,38.574,28.809,15.625,45.41
10.254,39.062,24.902,2.441,48.34
28.809,37.109,32.715,10.742,99.609
32.227,40.039,39.551,27.832,58.594
35.156,45.898,36.133,29.297,3.906
24.414,46.387,33.691,15.137,16.113
23.926,46.875,37.109,6.836,14.16
33.203,45.41,39.551,17.578,35.156
21.973,43.945,26.855,28.32,38.574
15.137,40.039,25.879,31.738,-8.301
25.391,37.598,32.227,32.715,19.531
28.809,44.922,30.273,31.738,61.523
35.645,47.363,35.156,28.32,68.359
37.598,40.039,36.621,30.273,40.039
23.926,37.598,34.668,32.715,46.387
18.555,42.48,31.738,33.203,53.711
24.902,45.41,24.902,24.414,40.527
43.457,41.016,24.902,22.461,48.34
46.875,35.645,26.855,25.391,26.367
35.156,36.133,31.738,32.715,18.555
27.832,41.992,29.785,28.32,-4.395
23.438,45.41,29.297,13.184,-9.766
43.457,44.434,35.645,18.066,15.625
54.688,41.504,36.621,24.902,16.602
33.203,36.133,41.016,19.531,17.578
16.113,36.133,49.805,12.695,37.109
18.066,37.598,54.199,7.812,-1.953
24.414,37.598,57.617,15.137,-31.25
47.363,38.086,58.105,25.391,-13.672
50.781,35.645,53.711,21.484,-23.926
16.602,35.645,47.852,18.066,-35.156
-11.23,36.133,45.898,2.441,62.988
0.488,35.645,37.598,3.418,14.16
31.738,37.109,38.574,20.02,-41.016
21.484,35.156,37.598,16.113,97.168
17.09,32.227,30.273,27.344,91.797
15.137,26.855,37.109,23.926,62.012
18.066,22.949,37.109,18.555,27.344
37.598,21.973,42.48,33.691,44.434
22.461,22.949,38.574,32.715,77.148
7.324,25.391,28.809,18.555,67.871
12.695,27.832,24.902,10.254,49.316
15.137,27.832,24.414,11.719,6.348
29.785,30.762,34.668,16.602,-16.602
30.273,32.227,38.574,20.508,12.207
9.766,30.762,39.551,18.066,20.996
-0.977,29.785,39.551,8.789,-29.297
2.93,26.855,35.645,6.836,14.648
13.184,25.391,30.273,20.996,39.551
12.695,26.855,26.367,15.625,42.969
12.695,27.344,29.297,6.348,16.602
1.953,26.367,32.227,17.09,27.344
5.859,32.227,33.203,14.648,68.359
38.574,36.621,30.273,18.555,34.668
35.645,33.691,30.273,24.414,13.184
13.184,30.273,36.621,21.484,40.039
2.441,24.902,30.273,7.812,12.695
10.742,24.414,23.926,-1.953,-25.879
22.461,27.344,30.273,7.812,35.156
22.461,30.273,29.785,7.812,19.043
11.719,31.25,29.297,4.883,19.043
-1.953,28.809,26.855,6.836,56.152
2.441,23.926,13.672,10.254,31.738
16.113,26.855,18.066,12.695,67.871
15.137,28.809,23.926,11.23,91.309
15.137,25.391,22.461,17.578,57.617
12.207,31.25,18.555,21.973,30.762
21.973,35.156,16.113,15.137,17.578
26.367,33.203,22.461,10.742,8.789
21.484,29.785,29.785,14.648,45.898
17.578,27.832,23.926,19.043,18.555
4.395,28.32,33.203,9.277,9.766
12.207,29.297,39.551,7.812,70.801
32.227,35.156,30.762,9.277,89.844
31.25,36.621,35.156,12.695,54.688
18.555,34.18,39.062,22.949,36.133
13.672,33.203,40.039,18.066,70.801
1.953,32.227,38.086,3.906,39.551
6.348,32.715,41.992,6.348,29.297
34.668,31.738,41.992,18.555,32.715
34.18,33.691,30.762,16.113,8.789
30.273,35.645,27.832,10.254,-12.207
27.344,35.645,31.738,10.254,-4.883
7.812,35.645,32.715,3.906,9.766
36.133,32.227,39.062,8.301,56.152
42.969,30.273,39.062,12.207,66.895
26.367,31.25,30.273,11.719,16.602
27.832,30.273,33.203,12.207,36.621
23.926,31.25,40.527,10.254,22.949
41.504,34.18,53.223,17.09,2.93
51.27,33.691,62.012,23.926,-40.039
36.133,32.715,62.5,14.648,1.953
31.738,36.133,57.617,17.578,64.453
31.738,37.109,51.758,22.461,47.363
33.203,33.203,58.594,19.043,22.461
32.227,29.785,62.012,16.602,-29.785
17.578,29.297,57.129,13.184,-9.766
29.785,30.273,51.758,19.531,22.461
38.574,32.227,45.898,10.742,42.48
24.902,30.273,49.805,18.066,39.551
15.137,28.809,48.828,36.621,18.066
18.066,31.738,41.016,23.438,12.695
12.695,34.668,37.109,20.508,64.941
11.23,33.203,28.32,27.344,82.52
13.184,30.762,23.438,27.344,61.523
18.555,30.273,28.809,33.203,45.41
22.949,29.297,33.691,31.25,44.922
11.23,26.855,22.461,16.113,64.941
0,26.855,7.324,17.09,37.109
20.508,27.832,9.277,25.879,35.156
40.527,26.855,12.207,22.949,41.992
28.809,22.949,16.113,22.461,28.809
40.527,22.461,27.832,35.645,0.488
25.391,21.484,29.785,30.273,-21.484
10.254,21.973,32.715,25.879,45.41
37.598,26.367,35.156,27.344,94.238
26.855,26.367,30.273,19.043,49.316
15.137,21.484,27.832,19.531,48.34
18.555,20.996,20.996,19.043,78.613
44.922,26.855,20.996,25.879,-2.441
40.039,29.785,29.297,38.574,1.953
17.578,26.367,24.414,23.438,38.574
9.277,29.297,23.926,10.742,38.574
0.488,32.227,25.879,8.301,15.137
14.16,27.344,27.832,9.277,19.531
29.785,23.926,37.109,20.02,43.457
37.109,21.484,36.133,17.578,62.988
22.461,17.578,32.715,22.461,52.246
-11.23,15.137,25.879,21.973,7.324
-4.395,19.531,24.414,3.906,7.324
21.484,25.391,25.391,11.719,51.758
29.785,26.367,21.973,21.973,77.637
22.949,20.996,27.832,22.461,48.34
27.832,21.484,26.855,14.648,-5.859
20.508,22.949,25.391,4.883,8.301
17.578,19.531,27.344,0.488,43.945
19.043,22.461,16.602,1.465,49.316
35.645,23.438,8.789,14.16,-8.301
29.785,23.926,14.16,20.02,0.488
7.324,28.32,6.836,22.949,-9.766
48.34,32.227,11.23,20.508,-66.406
43.457,30.762,18.555,11.23,-44.922
14.16,29.297,12.695,12.695,-62.5
13.672,30.762,19.043,19.043,-12.695
16.113,29.297,15.137,26.855,27.344
30.762,24.414,12.695,32.715,-30.273
51.758,29.297,16.113,36.621,-13.672
41.504,36.133,19.531,20.996,6.348
22.949,31.25,24.902,2.441,47.852
20.02,26.367,20.996,9.766,81.543
27.344,25.879,18.066,24.414,35.156
41.504,24.902,30.762,40.039,16.602
37.109,25.879,33.203,37.598,66.895
15.625,28.809,29.297,26.367,25.391
12.207,31.738,26.367,17.578,-13.184
20.996,29.785,28.809,20.508,26.367
39.551,29.785,33.203,32.227,15.625
37.109,35.156,20.02,25.391,32.715
17.578,37.109,18.066,2.93,12.207
29.785,32.715,20.02,9.277,19.043
33.691,29.785,20.508,20.508,44.922
30.762,29.785,29.785,29.785,46.387
29.785,29.297,34.18,36.621,17.578
22.461,28.809,30.762,29.785,39.551
23.438,25.879,24.902,33.203,63.965
20.996,24.414,28.809,27.344,26.367
29.785,23.926,31.738,16.602,30.273
29.297,26.367,25.391,21.484,-5.371
29.785,27.832,23.438,22.461,1.465
24.902,27.344,34.18,24.902,106.934
23.438,29.297,40.039,20.508,134.277
46.875,33.691,43.945,25.879,48.828
51.27,38.574,44.434,34.18,40.527
33.203,39.062,37.109,29.785,62.988
35.645,39.062,34.668,20.996,12.695
34.668,36.621,35.645,21.484,-43.457
39.551,35.645,39.062,39.062,-19.531
48.34,36.621,41.016,32.227,32.227
26.855,33.691,44.434,23.926,53.711
19.043,26.855,43.457,10.254,73.73
7.812,23.926,38.574,-0.977,51.758
10.742,31.738,47.363,6.348,15.137
29.785,34.18,56.152,18.066,-7.324
17.578,33.691,62.012,18.066,-17.578
0.977,30.762,58.594,12.695,-23.438
4.883,25.879,55.664,6.836,4.395
20.02,26.367,53.223,5.859,55.176
46.875,27.832,43.945,14.16,53.223
42.969,21.484,36.133,23.438,44.434
15.625,19.531,38.574,22.949,15.625
8.789,27.344,43.457,7.324,-32.227
13.672,28.809,40.527,10.742,-1.953
25.391,25.879,41.992,19.043,32.715
21.973,26.855,53.223,17.578,64.941
17.578,26.855,57.129,17.578,34.18
15.137,22.949,57.129,16.113,11.719
18.066,21.484,62.5,8.789,23.438
39.062,23.438,62.988,13.184,77.148
35.156,23.438,58.594,16.113,51.758
14.648,25.879,57.617,13.672,-16.113
7.812,26.367,48.34,13.672,7.324
12.207,26.367,47.852,15.625,-50.293
35.156,27.832,50.293,21.484,-29.785
37.109,31.25,44.434,17.578,76.172
21.973,34.18,53.711,12.207,33.203
18.555,34.18,58.594,7.812,-27.344
19.531,36.133,49.316,1.953,7.812
31.25,33.691,49.805,7.812,31.25
22.949,30.273,55.664,18.066,74.707
3.906,27.832,60.547,15.625,70.801
-3.906,20.02,65.918,12.207,39.551
1.465,18.555,62.988,8.789,61.035
22.461,25.391,60.059,13.184,91.797
28.32,29.785,60.547,17.578,38.086
13.184,27.344,52.734,12.695,17.09
4.395,26.367,44.922,15.625,48.34
8.301,29.297,35.645,17.09,63.477
23.926,29.297,33.203,15.137,83.496
28.809,31.25,25.879,20.508,15.137
11.719,35.156,17.09,20.996,-25.879
5.371,34.18,20.02,16.113,42.48
15.137,32.227,10.742,15.137,58.105
31.738,36.621,12.695,18.555,73.73
44.922,36.621,24.902,23.926,91.309
38.086,33.691,23.926,26.367,71.289
19.531,34.668,17.578,21.973,56.152
3.418,36.621,20.996,15.625,24.902
8.789,34.18,29.785,11.23,33.691
25.391,33.691,32.227,18.066,-19.043
21.484,36.621,28.809,28.809,-43.457
13.672,38.574,20.508,24.902,37.109
16.113,40.527,13.184,13.672,73.73
25.391,38.086,14.16,11.719,12.695
33.691,35.156,14.16,16.113,-8.301
27.832,35.645,11.719,12.695,39.551
15.625,36.621,9.277,8.789,35.645
13.184,38.574,6.348,12.207,-6.348
22.949,39.551,11.23,13.184,-6.836
38.086,42.969,17.09,13.672,8.301
36.133,44.434,16.113,16.602,30.273
30.273,41.016,22.461,7.812,59.57
29.785,41.992,29.297,6.836,7.812
34.668,45.41,27.344,17.09,20.02
48.828,49.316,25.879,25.879,21.973
49.316,53.223,32.227,31.25,7.812
36.621,55.176,38.574,28.32,-8.789
17.578,56.152,29.297,23.438,3.906
18.066,53.711,29.297,19.043,27.832
34.18,50.781,37.598,19.531,39.062
34.18,46.875,33.203,20.02,46.875
21.973,42.48,34.668,15.625,25.391
15.137,39.062,42.969,11.23,70.312
18.066,35.645,42.48,9.277,58.594
30.762,35.645,45.41,12.695,73.242
35.156,34.668,41.016,17.578,36.133
23.438,32.227,34.18,13.184,20.996
18.555,30.273,36.133,12.207,79.102
19.531,28.809,44.434,17.09,-2.441
34.668,27.832,54.688,20.02,41.504
45.41,30.273,50.293,21.484,75.195
32.227,33.691,39.551,19.531,8.789
18.066,30.762,32.715,16.113,16.602
13.672,30.762,24.414,11.23,8.789
22.949,36.621,21.973,13.672,30.273
27.344,38.574,23.438,18.555,6.348
23.926,36.621,23.438,13.184,-36.133
17.578,33.203,26.367,10.742,-56.641
15.137,36.133,43.945,17.09,1.465
25.879,41.992,60.547,19.531,36.133
37.109,42.48,62.012,27.832,41.992
34.18,41.504,66.895,33.691,65.918
24.902,39.062,60.059,29.297,12.207
20.996,38.574,57.617,21.484,16.113
29.785,41.016,66.406,20.02,55.664
43.457,40.527,62.988,26.855,43.945
35.156,38.086,60.059,24.414,63.965
25.879,41.504,67.383,24.902,45.898
22.461,43.945,63.477,21.973,12.695
25.879,41.992,54.688,16.113,22.949
36.621,41.016,45.41,20.02,16.113
38.086,39.062,39.062,21.973,31.25
25.391,39.551,35.645,22.949,70.801
17.09,39.062,32.227,20.996,55.176
20.508,35.645,26.367,20.996,-21.973
30.762,34.668,17.578,21.484,-21.484
29.785,36.621,18.555,23.438,20.508
18.066,36.621,23.438,22.949,30.273
12.207,31.25,25.879,18.066,52.246
16.602,28.809,26.367,13.672,50.781
24.902,29.785,36.133,13.672,45.898
22.949,30.273,41.504,15.625,46.387
20.508,32.715,37.598,12.695,-4.883
17.09,34.668,37.598,12.207,-20.996
14.648,38.086,36.621,13.672,-22.461
22.461,39.551,40.039,12.207,42.969
30.273,37.598,39.062,15.137,56.641
25.391,40.527,34.18,18.555,6.348
18.066,43.945,28.809,15.137,39.062
18.066,47.852,24.414,11.719,20.508
28.809,48.828,23.926,14.16,-20.996
39.551,46.875,21.973,16.602,35.156
30.762,45.898,22.461,17.09,14.16
18.066,45.898,23.926,15.625,-2.93
18.555,47.363,16.113,13.672,61.523
28.32,46.387,13.672,14.648,36.621
32.715,43.457,19.531,9.277,34.18
23.926,41.016,25.879,8.789,54.688
21.973,39.062,24.414,7.324,-8.789
14.648,41.992,25.391,1.465,-8.301
17.09,50.293,38.086,8.301,27.344
36.133,52.246,35.645,12.695,-13.184
28.809,50.781,40.039,10.742,-34.668
19.043,50.293,51.758,21.484,-13.184
16.602,45.898,50.293,17.09,-36.621
22.461,41.992,55.664,9.766,-9.766
40.039,38.574,48.34,18.555,45.898
32.227,35.156,45.41,24.414,97.168
20.508,33.203,49.805,21.484,104.492
16.602,36.133,41.016,19.531,50.781
18.555,40.527,40.039,18.066,18.066
32.715,41.016,44.922,21.484,11.719
32.227,38.574,51.27,21.484,53.223
20.02,38.086,63.477,14.16,77.637
10.254,39.062,57.617,13.184,73.242
14.16,36.133,43.945,14.16,53.711
28.809,35.645,46.875,21.484,4.883
32.227,37.109,54.199,24.902,18.555
23.438,36.133,57.129,25.391,13.672
19.043,34.18,49.805,21.484,3.418
23.438,36.133,42.969,19.531,0
36.133,32.715,47.852,28.32,-8.789
41.992,30.273,45.898,32.715,45.41
37.598,38.574,34.18,31.25,20.02
35.645,39.551,25.879,26.855,8.301
32.715,39.062,21.484,16.113,19.531
36.133,41.992,27.832,20.508,-37.598
40.039,39.062,29.297,22.949,18.066
28.32,32.227,24.902,18.066,80.078
14.16,30.762,21.484,21.973,34.668
7.812,34.668,17.578,17.578,38.086
14.648,36.133,23.926,24.414,87.891
28.32,35.645,26.367,37.109,67.871
24.902,34.668,22.949,27.832,49.316
16.113,36.621,14.648,27.832,55.176
10.742,39.062,5.859,25.391,39.551
22.949,40.527,5.859,18.555,24.902
36.133,39.062,4.395,25.391,28.32
25.879,34.668,4.883,24.902,44.434
19.043,38.086,12.695,27.344,13.184
17.578,41.016,13.184,28.809,-27.344
29.297,42.48,22.461,34.668,20.02
38.574,37.598,27.832,37.109,22.461
26.855,34.668,17.578,36.621,12.207
19.531,35.645,12.207,35.645,64.453
18.066,32.715,4.395,29.785,24.414
26.367,36.133,6.348,29.297,-25.391
41.504,39.551,7.812,38.574,6.348
41.016,40.039,9.766,41.016,8.301
29.297,41.504,16.113,29.785,-4.883
21.484,38.574,12.207,19.531,34.668
25.879,37.109,8.789,18.066,-12.207
39.551,36.621,9.277,23.438,-8.789
46.387,35.156,18.066,32.715,81.055
38.574,32.715,21.973,29.297,33.203
25.391,29.297,10.742,21.484,-39.551
29.785,34.18,12.695,25.879,-20.996
47.852,38.574,22.949,26.855,62.5
51.27,40.527,24.902,29.785,65.43
36.621,41.992,22.461,29.297,81.055
25.391,41.016,24.414,30.273,48.34
23.926,41.504,33.203,26.367,-3.418
32.227,39.551,38.086,21.973,48.34
30.762,39.062,31.25,22.461,51.758
18.555,39.062,33.203,18.555,-8.789
16.602,36.621,44.922,22.461,-10.254
16.113,35.645,50.293,23.438,-4.883
19.043,38.086,50.293,24.902,-29.297
21.973,41.016,43.945,27.832,2.93
15.137,41.016,43.457,28.809,46.875
4.883,37.598,38.574,19.531,45.41
5.371,33.691,31.25,15.625,56.152
20.508,34.18,36.133,24.414,88.867
28.809,32.227,31.738,24.902,57.129
20.996,29.785,26.367,20.02,38.086
10.742,29.785,23.926,15.625,41.992
11.719,27.832,14.648,16.113,29.785
25.879,31.25,10.254,23.438,43.457
41.992,31.25,12.207,24.902,47.852
35.645,29.785,17.09,23.926,24.902
19.531,32.715,18.555,22.949,-6.836
10.254,33.691,16.113,17.578,12.207
15.137,31.738,16.602,17.09,9.277
32.227,34.18,19.043,22.949,1.465
28.32,36.133,20.996,25.879,32.715
20.02,37.598,27.344,26.855,0.977
16.602,43.945,36.133,21.484,3.418
22.461,39.062,35.156,15.625,24.414
40.527,33.203,30.762,20.508,18.555
39.551,36.621,35.645,26.855,16.113
25.879,35.645,43.945,26.855,20.996
21.484,34.668,42.969,25.391,46.387
29.297,39.551,44.922,25.391,49.805
45.898,41.016,42.969,31.25,59.57
43.457,38.574,40.527,29.297,68.848
24.414,37.109,47.852,23.438,51.758
16.113,38.086,46.875,19.531,24.414
17.09,38.086,39.551,13.672,-24.902
30.273,33.203,31.738,15.137,-36.621
30.273,30.762,32.715,19.043,3.418
12.695,32.715,32.715,19.043,-10.742
0.977,36.621,26.367,11.719,-1.465
8.789,37.598,31.738,3.418,25.391
23.926,35.156,41.992,6.836,8.789
23.438,35.645,41.016,11.719,-4.883
18.555,35.156,40.039,11.719,84.473
11.719,31.738,36.133,11.23,116.211
3.906,30.273,29.297,11.23,-3.906
20.02,34.18,28.809,17.09,-23.926
35.156,34.18,23.926,21.484,-0.488
27.832,35.156,21.484,21.484,-17.578
16.602,33.691,23.926,22.461,-39.062
12.695,31.25,23.926,15.625,-2.441
22.461,34.18,19.531,13.672,47.852
35.156,34.18,20.508,22.949,-48.828
27.832,33.203,21.973,24.902,-53.223
16.113,35.645,21.973,21.973,38.574
9.766,36.133,26.367,19.531,82.031
19.043,35.156,24.414,20.508,45.41
36.621,33.203,17.578,28.809,9.766
29.297,34.668,15.137,29.785,-7.812
17.578,32.715,11.719,21.484,-13.672
14.16,29.785,8.789,16.602,5.859
22.461,35.156,12.695,20.508,26.855
35.156,36.621,17.578,23.926,-21.484
31.738,37.109,12.207,25.879,-35.156
22.949,41.016,2.93,26.367,-1.953
13.672,45.898,1.953,20.02,20.02
14.16,46.875,9.766,13.184,62.012
27.832,46.387,19.531,15.625,123.535
27.832,43.945,27.344,20.02,130.859
18.066,39.062,17.578,16.113,102.051
15.137,36.133,2.93,15.625,52.734
22.949,37.598,3.906,18.555,24.414
31.738,37.598,-2.441,22.461,21.484
32.715,38.574,-13.184,24.902,58.105
23.926,42.969,-5.859,29.297,90.332
20.02,43.457,-1.953,29.297,16.113
28.32,44.922,4.395,30.762,51.758
40.039,42.969,13.672,34.668,99.121
41.016,42.969,9.277,32.227,67.383
28.32,45.41,1.953,26.367,11.719
15.625,43.457,-5.371,20.508,-5.371
20.508,45.41,-5.859,20.996,27.832
31.738,46.387,7.812,24.414,62.012
32.715,42.969,18.555,24.414,54.199
27.832,41.016,26.855,23.438,-22.949
18.066,38.086,28.809,24.414,-26.855
12.207,39.551,34.668,25.879,60.547
26.367,45.41,41.992,20.996,53.223
34.668,46.387,37.109,27.344,55.176
24.902,43.945,40.039,33.203,86.914
18.555,41.016,43.457,26.855,112.793
16.602,41.992,40.527,22.461,44.434
26.367,42.48,45.898,24.414,-9.766
35.156,39.551,50.781,28.32,14.648
28.809,37.109,49.805,29.297,6.836
21.484,35.645,54.199,27.344,37.598
19.043,34.668,55.176,23.438,43.457
29.785,33.203,50.293,25.879,-23.926
41.992,34.18,63.477,32.715,-57.617
33.203,31.738,75.684,37.109,-12.207
19.043,26.367,72.266,35.645,28.32
12.207,28.809,66.406,21.973,-17.09
22.461,32.227,60.059,21.973,-17.578
43.457,33.203,51.758,25.391,21.973
39.551,34.668,50.781,20.508,22.461
23.926,35.645,45.898,20.02,25.879
13.672,35.156,34.668,16.602,90.82
15.625,33.203,34.668,13.672,64.453
29.785,34.18,35.645,15.625,5.859
27.832,37.598,33.203,19.043,53.223
18.555,37.109,34.668,20.996,84.473
12.207,31.738,32.715,16.602,57.129
12.695,30.762,41.504,15.625,-4.395
28.809,32.715,47.852,22.461,7.324
29.297,31.738,45.898,22.949,60.547
18.555,37.598,45.898,19.043,30.273
12.695,40.527,38.086,14.648,-14.16
14.648,35.645,41.504,14.16,-13.184
23.926,33.691,47.852,20.508,18.555
25.391,36.133,44.922,24.414,21.484
22.949,36.621,48.34,28.32,-6.836
18.066,32.715,45.898,27.344,17.578
14.648,32.227,32.715,19.531,59.57
25.391,34.18,29.785,21.973,115.234
35.645,33.203,29.785,23.926,59.082
26.855,34.668,19.531,18.066,20.508
9.277,34.18,16.602,13.672,36.133
6.836,31.25,20.996,12.207,30.762
18.066,29.297,19.531,12.695,-7.812
28.809,31.738,22.949,20.02,14.16
19.043,33.203,22.461,22.949,-23.438
7.324,33.203,20.02,18.555,-49.316
7.812,32.227,14.16,13.184,55.176
19.043,32.227,6.348,9.277,99.121
32.227,33.691,13.184,11.23,28.809
28.809,32.715,25.879,14.16,2.93
19.531,33.691,24.902,13.672,40.039
11.23,34.18,20.996,8.301,49.316
19.043,34.18,23.926,6.348,42.48
27.344,36.621,19.043,12.695,23.926
19.531,38.086,22.461,19.043,53.223
12.695,37.109,22.461,14.648,41.504
4.883,33.203,22.461,10.742,18.066
10.742,31.738,32.227,19.043,30.273
28.809,35.645,34.668,25.391,-4.883
30.762,39.551,35.645,21.484,43.945
24.902,37.109,38.574,23.926,90.332
12.695,33.203,39.062,22.461,50.781
11.23,33.691,33.691,14.16,-15.137
31.738,36.621,30.273,15.625,1.465
30.273,34.668,29.297,15.625,39.062
13.184,31.25,25.879,14.16,2.441
6.348,27.344,25.391,15.137,-0.488
9.277,26.855,28.32,15.625,-8.789
23.926,27.832,30.273,19.043,8.789
30.273,27.832,41.016,20.02,24.902
21.484,28.809,50.293,19.531,-39.062
8.789,27.344,49.316,18.066,-1.465
4.395,26.855,47.363,15.625,33.691
20.996,31.25,42.969,17.09,-15.137
30.762,34.668,43.457,22.461,11.719
20.508,34.668,54.199,25.391,-8.301
10.254,32.227,53.223,25.391,-11.23
9.766,31.25,49.805,21.973,2.93
24.902,33.691,52.246,21.973,-16.602
32.715,34.18,48.34,26.855,0.977
24.902,31.25,37.598,28.32,9.277
13.672,30.273,36.621,22.461,55.176
10.742,33.691,32.227,18.066,131.348
25.391,33.691,19.531,19.043,85.938
35.156,28.809,18.555,14.648,9.766
23.438,27.832,27.832,12.207,1.465
9.766,27.344,22.949,9.277,41.992
11.719,26.855,9.766,3.418,119.629
24.902,28.32,9.277,8.301,84.473
38.574,30.762,8.789,13.184,25.391
30.273,37.109,5.859,12.207,9.766
21.484,37.109,6.348,8.301,-15.137
20.996,30.762,12.695,5.371,-6.836
24.902,31.25,17.09,4.395,94.238
40.527,34.18,21.484,8.789,109.863
33.203,32.227,32.227,14.648,69.824
16.113,30.762,35.645,14.16,66.895
9.277,30.762,25.879,12.695,47.363
14.16,32.227,13.672,9.766,55.176
27.344,33.203,8.789,13.672,71.777
23.926,35.156,9.766,20.508,63.965
12.695,37.598,4.395,17.09,27.832
6.836,37.109,-2.93,11.23,11.23
12.695,32.715,-1.953,10.742,9.766
33.691,30.273,8.301,12.207,20.996
40.527,32.227,23.926,14.16,20.996
30.273,33.691,38.086,16.113,11.719
23.926,33.203,39.062,10.742,12.695
24.902,31.738,40.527,11.719,-4.395
34.668,30.762,48.34,19.531,34.668
40.527,32.227,52.734,23.926,47.852
34.18,36.621,54.688,22.949,27.832
25.391,40.527,50.781,19.531,29.297
19.043,40.527,45.898,15.625,19.531
27.832,39.062,42.48,19.531,-4.395
35.645,38.574,38.086,20.02,-0.488
26.367,38.574,43.457,20.02,74.707
16.602,33.203,36.133,16.602,96.191
15.625,33.203,25.391,17.09,41.016
26.855,35.645,31.25,23.926,33.203
32.715,32.715,32.715,27.344,24.414
22.949,31.738,23.926,30.762,-19.531
17.09,33.203,17.09,31.738,0.488
18.066,37.598,19.043,32.227,39.551
32.715,39.551,24.414,30.762,3.418
49.316,39.062,39.551,34.668,-17.09
40.039,39.062,48.34,40.039,11.23
28.809,39.062,40.527,38.574,42.48
24.414,36.621,32.227,33.203,-23.926
33.691,38.086,30.762,34.668,-27.832
45.898,38.574,32.715,38.574,-20.508
39.551,35.645,34.18,37.598,12.207
24.414,38.086,26.367,34.18,77.148
17.578,34.18,15.137,32.227,82.52
41.016,23.926,15.137,51.27,51.27
56.641,24.414,22.461,52.246,59.082
11.719,29.297,31.738,4.395,50.293
-15.137,32.715,29.785,-6.348,-1.465
-14.16,33.203,10.254,-3.906,8.789
-18.555,30.762,8.789,-16.602,35.645
-14.648,31.738,19.531,-30.273,55.176
-30.273,37.109,36.133,-43.457,72.266
-49.805,33.203,53.223,-47.363,74.219
-59.082,29.297,48.34,-55.664,20.02
-62.988,24.902,41.504,-62.012,46.387
-45.898,26.367,49.805,-59.57,28.809
-45.41,32.715,58.594,-60.547,-3.418
-65.918,32.227,49.805,-67.871,-15.137
-64.941,35.156,38.574,-63.965,-40.039
-61.523,35.156,48.34,-60.547,-7.812
-50.781,30.762,66.895,-62.5,23.438
-36.133,29.785,77.637,-50.293,26.855
-39.062,26.367,88.379,-42.48,42.48
-41.016,20.508,84.473,-39.551,5.371
-29.785,25.879,82.52,-34.668,20.996
-13.672,32.227,83.496,-26.367,62.012
-4.395,34.668,78.125,-19.531,14.16
-4.883,36.133,76.172,-13.184,1.953
-5.371,36.621,72.266,-8.301,17.09
-10.254,37.109,68.359,-6.836,38.574
2.441,38.086,67.383,-1.953,93.75
20.02,38.086,75.195,6.348,72.754
12.695,34.18,81.055,7.324,42.969
7.324,37.109,70.801,6.348,7.812
6.348,40.039,68.359,8.301,47.363
12.695,33.203,80.566,8.789,-7.812
27.344,31.738,90.82,12.695,-34.668
24.902,33.691,90.332,13.672,39.551
16.602,35.645,77.148,15.625,12.207
9.766,33.691,69.336,17.09,26.855
18.066,32.227,60.059,17.578,47.852
31.25,35.156,55.176,21.484,20.996
25.879,33.203,55.664,24.414,50.781
17.09,31.738,42.969,22.461,73.73
11.719,32.227,30.273,20.996,0
22.949,33.691,28.32,23.438,-36.133
36.133,35.156,29.785,23.438,7.812
27.344,35.645,37.109,20.508,-18.555
20.02,38.574,37.109,22.461,-1.953
14.648,36.621,27.832,20.02,31.25
18.555,38.086,25.391,20.996,12.695
37.598,41.992,23.438,22.949,5.859
40.039,41.992,20.02,25.391,37.598
26.855,40.039,18.555,24.902,29.785
22.461,34.18,21.484,20.508,14.648
24.902,31.25,27.832,20.508,1.465
34.18,36.133,34.18,21.484,26.367
41.504,40.039,40.039,30.762,14.16
34.18,37.598,40.039,34.668,50.293
21.973,35.156,32.715,26.855,56.641
19.531,36.133,26.367,24.414,18.555
29.297,39.551,24.902,24.902,11.23
32.715,40.039,33.203,28.32,54.688
25.879,38.574,40.527,28.32,88.379
18.555,39.551,39.062,24.902,41.504
15.137,38.574,39.062,21.484,39.062
27.344,34.668,33.203,25.391,52.246
35.645,33.203,31.25,34.18,7.812
29.785,30.273,39.062,37.598,-6.836
22.949,31.25,31.25,29.297,58.594
15.137,41.504,23.926,17.09,74.707
24.902,43.457,28.809,22.461,35.156
33.691,41.016,34.668,32.715,56.152
26.855,43.457,33.203,34.18,75.684
24.414,45.898,24.414,31.738,63.477
20.996,43.457,14.648,29.785,40.039
28.809,38.086,7.324,27.344,30.273
43.945,34.668,16.113,29.785,50.293
35.156,36.133,25.879,28.32,80.566
23.926,36.133,18.066,22.461,72.754
23.438,28.32,13.184,20.02,5.371
21.973,21.484,13.672,17.578,22.461
36.621,29.297,18.555,21.484,43.457
37.109,33.691,26.367,29.297,40.527
16.113,30.762,19.043,28.809,54.199
6.348,28.809,14.16,20.02,45.41
10.742,26.367,10.742,14.648,37.109
27.832,23.926,10.742,15.625,16.113
30.762,28.32,9.277,20.996,66.895
22.461,30.273,5.371,22.949,40.039
17.09,29.785,8.789,17.578,-3.906
18.066,32.227,10.254,20.02,-5.859
31.25,32.227,14.648,27.344,-51.758
32.227,31.738,15.137,27.344,-15.625
20.996,30.762,14.16,25.879,17.09
16.602,29.785,14.648,23.438,21.484
18.555,30.273,17.09,22.461,18.066
27.344,29.785,15.137,25.391,26.855
32.227,29.297,11.23,22.949,15.625
18.066,27.344,21.484,22.461,34.668
4.883,27.832,29.297,15.625,17.09
3.906,27.832,31.25,6.836,-2.93
12.695,25.879,32.715,7.324,-1.465
20.508,27.344,33.691,12.695,-14.16
13.184,29.785,34.668,14.16,7.812
10.254,23.926,22.949,10.742,-1.953
14.648,20.996,11.23,10.254,-32.715
22.461,28.809,18.066,14.648,-6.348
29.785,33.691,22.949,17.578,5.859
19.043,32.715,19.531,14.16,-10.254
10.742,29.297,14.16,12.695,14.648
18.066,25.879,15.137,12.207,29.785
27.344,23.438,17.09,10.742,7.324
34.668,24.902,20.508,15.625,37.598
27.832,24.902,18.555,19.531,36.621
20.02,27.344,18.066,14.648,23.438
18.555,26.367,18.066,11.23,37.598
22.949,25.879,12.207,15.137,62.012
36.621,27.832,9.277,17.578,27.344
34.18,26.855,11.23,20.02,38.086
23.438,25.391,13.184,20.02,82.52
17.09,28.32,4.883,14.648,71.289
23.438,25.879,2.441,10.254,47.363
30.762,28.32,14.16,10.254,-35.645
22.949,33.691,22.949,12.207,-23.438
13.184,33.203,26.367,10.254,75.195
6.836,34.18,26.855,8.789,72.754
10.254,33.691,22.461,6.348,48.34
20.508,31.25,30.273,3.418,21.484
23.438,34.18,42.48,9.277,-21.484
11.719,38.086,43.457,6.348,16.113
0.977,34.668,45.41,0.488,38.574
3.418,32.715,44.922,-2.93,60.059
22.461,34.668,49.316,0,54.688
31.25,36.133,52.246,9.277,80.078
23.926,32.227,48.34,11.23,114.746
11.719,30.273,44.922,5.371,48.34
9.766,30.273,46.387,2.93,44.434
23.926,31.25,47.363,9.277,41.504
22.949,28.32,53.711,11.23,17.09
9.766,25.879,61.523,6.836,26.367
8.789,27.344,48.828,4.395,-6.348
12.207,26.367,36.621,5.371,-4.395
25.879,28.32,45.41,14.16,19.043
34.668,32.227,65.43,19.043,35.156
20.508,34.668,65.918,20.996,45.898
11.23,32.715,47.852,19.043,29.297
15.137,29.785,30.273,16.602,-37.598
29.785,31.738,30.762,20.508,-7.324
42.48,32.227,41.016,22.949,-2.93
32.715,33.691,38.574,22.461,-49.805
20.02,37.109,26.367,17.578,-20.508
17.578,36.621,23.438,14.648,-20.508
30.762,40.527,34.668,18.066,51.758
44.434,40.527,43.945,24.902,52.246
35.645,40.039,42.48,21.973,-3.906
22.461,35.156,32.227,12.207,57.617
20.508,29.297,26.855,10.742,58.105
28.809,34.18,22.949,18.066,45.41
41.016,39.062,22.461,20.996,30.762
37.598,38.086,27.344,21.484,10.254
25.391,39.551,25.391,20.996,36.133
19.043,40.527,19.531,13.672,3.906
26.367,41.016,9.766,10.742,28.32
40.527,40.527,14.648,14.648,62.988
35.645,39.062,20.02,15.137,31.738
17.578,35.645,10.254,11.719,-6.348
12.207,36.133,5.371,9.766,-6.836
14.16,38.086,6.836,7.324,36.621
28.32,37.598,3.418,9.766,61.035
28.32,37.598,5.371,15.137,30.762
19.043,36.133,6.348,19.531,-19.531
13.184,39.062,4.883,16.113,0
15.137,37.598,1.953,13.184,-11.719
34.668,38.574,7.324,19.043,17.578
37.598,42.48,21.484,21.484,47.363
23.438,34.668,18.555,16.602,-2.93
24.414,31.738,14.648,17.09,27.832
25.391,31.738,20.996,16.113,53.223
31.25,32.715,25.879,16.602,30.762
38.086,39.062,27.344,21.973,64.453
28.32,40.039,17.578,19.531,36.133
20.508,41.016,9.277,14.648,10.254
20.508,41.992,18.066,10.254,20.508
28.32,42.48,25.879,9.277,-0.977
34.668,49.805,27.344,15.137,30.762
26.855,46.875,24.414,19.043,50.293
20.996,41.992,24.902,17.09,58.105
17.578,47.852,25.391,13.672,52.246
26.855,49.805,22.949,11.719,85.938
34.18,43.457,20.996,7.812,18.066
22.461,39.551,23.438,11.23,-26.367
15.625,39.551,31.25,15.625,38.574
11.719,36.621,27.832,14.16,20.996
19.531,36.133,24.902,12.207,21.484
29.785,34.668,30.762,13.672,44.922
19.531,35.156,28.32,14.648,43.945
9.277,36.621,20.02,12.695,11.23
4.395,33.691,16.602,12.695,34.18
11.719,31.738,13.184,11.719,79.59
26.367,31.738,21.973,13.672,29.785
19.531,32.715,28.32,15.137,3.906
12.695,30.273,31.738,11.719,20.508
9.766,32.227,35.645,3.418,27.344
12.207,32.227,37.109,1.465,94.238
27.832,32.227,38.086,9.277,84.473
29.785,33.691,43.945,14.648,21.484
19.531,32.227,41.504,13.672,67.383
14.648,26.855,35.645,13.184,50.781
18.066,21.973,39.551,12.695,77.148
26.855,24.414,35.645,15.137,48.34
27.344,25.391,37.109,20.996,-7.324
16.602,23.926,31.738,16.602,-5.859
6.836,26.367,27.344,14.16,3.418
8.789,24.902,23.438,13.672,14.16
22.949,24.414,23.438,16.602,18.555
24.902,24.414,27.344,21.484,47.852
17.578,19.531,23.926,19.043,41.992
11.23,21.973,25.391,14.16,41.504
6.836,22.949,16.602,11.23,-13.184
16.113,21.484,6.348,9.766,-45.898
23.438,21.973,7.812,11.23,-19.043
19.043,22.949,10.742,13.184,14.648
7.324,23.438,11.23,7.324,36.621
2.441,21.973,7.324,4.395,-10.254
15.137,22.949,10.254,11.23,-24.414
25.391,27.344,14.16,15.137,44.922
20.02,27.344,9.277,18.066,8.301
9.766,19.043,10.254,17.578,13.672
6.836,17.578,14.16,16.602,83.008
19.531,23.926,12.695,17.578,63.477
32.715,21.484,16.602,20.508,0.977
27.344,24.902,23.438,23.438,19.531
20.508,30.273,22.461,21.973,64.941
18.555,27.832,19.043,18.066,36.133
28.32,32.227,21.973,18.555,25.391
38.574,40.527,27.832,21.973,28.809
33.691,44.434,28.809,22.949,9.277
24.902,39.551,37.109,18.555,16.113
18.555,38.086,48.828,10.742,57.129
25.879,40.527,45.41,9.277,44.922
42.969,39.062,47.363,17.578,32.715
37.109,42.48,48.828,23.926,56.641
22.949,42.969,38.574,21.973,23.438
20.02,42.48,41.992,17.09,-18.555
24.414,43.945,46.387,8.789,-24.414
40.527,41.016,45.898,8.789,33.203
40.039,37.598,53.711,12.207,78.125
24.902,38.574,50.293,10.742,80.078
17.09,41.504,43.457,10.254,-17.578
19.531,40.527,48.828,9.766,-36.621
32.227,47.363,46.387,5.859,35.156
34.18,44.434,37.109,7.324,25.391
19.043,34.18,31.25,11.719,33.691
10.742,32.227,29.297,12.207,25.879
13.672,31.25,29.785,8.789,1.953
29.297,34.668,32.227,7.324,5.859
33.203,30.762,36.621,9.766,53.223
18.555,28.32,41.504,3.906,44.922
10.742,34.668,31.738,0,12.695
5.859,33.203,24.414,-3.906,30.273
17.09,30.762,24.902,-1.953,30.273
28.32,30.273,20.996,4.883,11.719
20.996,30.762,19.531,6.836,27.344
9.766,29.785,23.926,5.859,33.203
4.395,27.832,22.949,4.395,27.832
14.16,24.414,16.113,3.906,54.688
20.996,20.02,22.461,6.836,39.551
11.719,22.461,31.738,11.719,-6.348
-0.977,25.879,27.344,6.348,20.996
-2.441,26.367,34.18,1.953,31.25
14.16,28.32,39.062,5.859,7.812
23.438,22.461,43.457,12.207,-25.391
14.648,20.508,37.598,14.648,-30.762
8.301,23.926,23.926,10.742,-20.508
6.836,22.461,27.344,7.812,-3.418
14.648,22.461,30.762,8.789,55.664
29.785,27.344,40.039,9.277,21.973
27.344,30.273,62.5,13.184,42.48
17.09,29.785,65.918,14.16,44.434
13.672,30.273,55.664,8.301,-30.762
15.137,29.297,44.434,6.836,37.598
27.832,28.32,50.293,15.137,62.012
27.832,27.344,65.918,25.879,60.059
16.113,22.461,67.871,29.297,38.574
12.695,30.762,62.012,28.32,15.625
21.973,38.086,56.152,27.344,29.785
33.203,32.227,59.57,25.391,46.875
30.762,32.715,63.477,28.32,72.754
24.414,36.133,63.477,34.18,12.695
16.113,40.039,61.523,27.344,39.551
18.066,41.016,61.035,20.02,47.852
28.32,35.156,70.312,21.973,4.395
31.738,31.738,71.289,28.32,42.969
24.902,31.25,60.059,26.367,19.531
20.02,36.133,45.898,24.414,14.16
29.297,40.039,44.434,30.762,50.293
39.062,36.621,62.988,30.762,7.324
27.344,28.32,69.336,20.996,4.395
15.625,24.414,63.477,21.484,15.137
13.184,23.926,55.176,29.297,-25.391
9.766,21.484,37.109,25.391,37.598
24.414,21.484,25.879,24.414,93.262
38.574,23.438,36.621,36.133,13.672
33.691,30.762,46.387,41.016,23.926
19.531,31.25,51.27,25.391,40.527
21.484,25.391,50.781,17.09,30.273
37.109,22.461,46.387,21.973,48.34
46.387,23.438,58.105,25.391,94.727
37.598,24.414,63.965,28.809,107.91
27.344,19.531,53.711,31.25,86.426
19.531,23.926,61.523,32.227,49.316
26.367,32.715,69.336,34.18,24.414
40.039,31.25,80.078,32.227,28.809
32.715,30.273,83.008,30.762,-4.883
25.879,26.855,72.266,27.832,85.938
18.555,24.414,63.477,21.484,100.098
21.973,24.414,62.988,21.973,12.695
39.062,25.391,65.43,23.438,44.922
34.668,24.902,60.059,21.484,29.297
19.531,20.996,58.594,20.02,-9.766
11.719,24.902,62.5,15.625,-6.836
19.531,25.879,56.641,14.648,-45.898
43.457,23.926,55.176,23.438,-61.035
46.387,26.855,68.848,32.227,5.859
30.273,27.832,71.777,28.809,61.035
20.02,28.32,61.523,20.508,49.316
22.461,28.32,56.641,21.973,40.527
41.504,27.832,65.43,25.879,25.879
50.293,27.832,63.477,22.949,-6.836
33.203,22.949,56.641,22.949,25.879
17.09,22.949,54.199,21.973,2.93
17.578,29.297,50.293,18.555,28.32
33.691,28.32,42.969,21.973,69.336
38.574,23.926,36.133,28.809,29.785
31.25,25.391,35.645,28.32,33.691
29.785,31.25,36.133,26.855,1.465
24.902,31.738,35.156,24.414,1.953
32.715,24.414,30.762,22.949,39.551
41.016,27.344,28.32,22.461,31.738
32.227,31.738,26.855,25.879,8.301
25.391,26.855,29.785,26.855,-29.297
26.855,22.461,29.297,21.484,-42.969
34.668,25.391,27.832,24.414,-19.531
34.668,24.414,34.18,32.227,37.598
28.809,25.391,30.273,31.25,80.566
21.973,33.691,17.578,25.879,19.043
18.555,35.645,14.648,16.113,-18.066
31.738,31.25,16.113,14.648,-27.344
33.691,32.715,22.949,19.531,-41.992
22.949,33.203,25.879,19.531,61.035
15.137,33.203,15.625,20.02,62.012
9.766,30.762,12.695,15.137,30.273
18.066,30.762,17.09,13.672,55.176
35.156,34.18,24.414,14.16,52.246
31.25,34.668,22.949,12.695,17.09
14.648,32.227,20.02,14.16,21.973
12.695,31.25,20.508,17.09,29.785
22.949,30.273,19.531,20.508,39.062
36.133,26.855,22.949,16.113,74.219
30.273,29.297,14.16,16.113,-3.906
22.461,29.785,5.371,16.602,8.301
20.02,31.25,10.254,12.207,20.508
28.32,29.297,5.859,9.277,18.555
43.457,34.668,5.859,15.625,38.574
38.086,39.551,15.625,20.996,17.578
21.973,34.18,17.578,15.137,-20.02
4.395,26.855,15.625,4.883,1.953
6.836,21.484,10.254,4.883,13.672
20.996,23.926,18.555,21.973,-12.695
21.973,29.297,35.156,22.461,50.293
13.184,31.25,33.203,14.648,57.129
5.371,32.227,21.484,2.93,-17.578
1.465,24.414,20.508,-9.766,-23.926
16.602,21.484,25.879,5.371,12.207
28.809,33.203,40.039,10.254,5.859
1.953,30.273,45.41,-7.812,1.953
-11.23,26.367,35.645,-11.23,44.434
-3.906,28.809,28.809,-10.742,49.316
7.324,27.344,36.133,-16.113,12.695
14.648,24.902,40.527,-13.184,-24.414
-2.93,22.461,41.016,-14.16,35.156
-15.137,19.531,48.828,-17.09,94.727
-14.16,21.973,46.387,-19.043,46.387
-0.977,24.414,43.457,-11.719,-62.988
9.277,25.391,52.734,0.488,6.836
-2.441,25.879,50.293,-0.488,57.617
-15.137,23.926,37.598,-4.883,19.531
-14.648,27.344,34.668,-2.93,61.035
0,30.762,33.203,-2.93,58.105
10.254,27.832,41.992,6.836,46.875
5.371,20.996,47.852,13.672,40.039
4.395,20.508,42.48,8.301,12.695
3.418,26.855,35.645,5.859,30.762
12.207,30.762,39.062,7.812,25.391
32.227,33.691,50.781,12.695,1.465
27.344,35.156,48.828,28.809,-19.043
7.812,33.203,41.504,24.414,-37.598
5.859,34.668,40.527,11.719,7.324
23.926,37.109,39.551,15.137,67.871
41.992,33.691,46.387,17.578,67.383
33.691,28.32,55.664,24.414,47.363
21.973,27.832,56.641,24.902,66.406
22.461,28.809,57.617,23.438,72.266
30.762,35.156,53.711,19.043,50.293
40.039,32.715,56.641,16.113,-6.348
38.086,29.297,64.453,21.484,4.883
23.438,32.715,57.129,22.949,65.43
10.742,31.25,61.035,13.184,14.648
14.648,33.203,66.406,12.207,-8.301
26.367,29.297,66.406,19.043,61.035
33.203,28.32,72.266,24.414,78.613
18.066,32.227,65.43,23.438,55.176
9.766,29.297,62.5,20.508,55.664
12.207,27.344,61.523,19.043,54.688
24.902,23.926,59.082,20.02,10.254
32.715,27.344,53.711,22.949,27.832
21.484,34.18,44.434,19.531,53.711
16.602,33.691,48.34,20.02,28.32
19.531,32.227,56.641,20.996,10.742
28.809,32.715,58.594,16.113,57.129
37.598,30.762,72.266,13.184,75.195
29.785,29.785,75.684,10.742,25.391
15.625,31.738,62.988,7.812,-9.766
14.648,33.203,62.5,6.836,44.922
31.25,31.738,65.43,13.184,56.641
38.086,28.32,64.941,22.461,15.625
26.367,24.414,69.336,21.973,25.879
15.137,19.043,73.242,14.16,3.906
10.254,25.879,60.547,13.184,4.883
18.066,36.621,58.105,12.695,-22.949
32.227,34.18,79.59,13.184,11.719
31.25,27.832,81.543,15.137,22.949
23.438,26.855,69.824,11.719,-53.711
20.02,25.879,72.266,8.789,13.184
24.902,25.879,77.637,6.836,77.637
33.203,26.367,77.148,11.719,81.543
26.855,23.926,74.219,16.113,62.012
15.137,21.973,77.637,15.625,29.297
9.277,17.578,73.73,10.254,-17.578
13.672,18.066,67.871,7.812,14.16
33.203,20.996,64.941,13.184,52.246
34.668,20.508,58.105,20.02,28.809
20.508,22.461,53.223,20.02,15.625
14.16,22.949,52.246,16.602,20.996
18.066,20.996,48.828,18.066,90.82
30.762,22.461,50.293,16.113,90.82
30.273,23.438,55.664,20.02,70.801
18.555,22.949,61.523,22.949,60.059
11.719,24.414,68.359,16.602,18.066
16.602,26.367,68.359,17.09,56.152
33.691,25.391,72.754,23.926,48.34
41.504,29.785,78.613,27.832,27.344
33.691,30.273,68.359,32.227,67.383
19.043,28.809,59.082,32.227,78.613
15.137,30.273,47.852,25.879,57.129
32.715,29.297,45.898,22.949,-9.277
43.945,23.438,55.176,20.996,-5.859
33.691,17.578,61.035,17.09,32.715
21.973,20.508,61.523,14.16,41.504
15.625,24.414,55.664,10.742,27.344
25.391,25.879,52.246,11.719,16.602
34.18,25.879,51.758,20.02,27.344
28.32,22.461,39.551,17.578,17.578
21.484,16.113,30.762,9.277,25.391
12.695,17.578,34.668,8.301,27.832
22.949,16.113,34.18,8.301,29.297
39.551,12.695,34.18,13.672,55.664
34.18,15.625,36.621,20.508,70.312
22.949,17.09,25.391,16.602,101.562
19.043,16.602,11.23,8.789,55.176
23.438,16.113,10.742,8.301,14.648
34.668,21.973,20.996,12.207,54.688
34.668,20.508,28.32,13.184,69.336
25.391,20.996,21.973,13.672,27.832
22.949,25.391,20.02,12.695,13.184
29.297,21.484,19.531,11.719,48.34
43.457,20.508,18.066,14.16,25.879
41.016,20.996,19.531,18.555,6.348
26.367,20.996,18.555,18.066,15.625
18.555,20.508,8.789,15.625,0.977
24.414,19.043,3.418,18.066,2.93
31.738,14.16,33.203,19.043,17.578
29.785,4.395,54.688,22.949,31.25
26.855,10.254,46.875,23.926,44.922
22.461,20.02,31.738,21.973,37.109
24.414,20.02,24.902,23.438,1.953
41.016,14.16,22.461,28.32,-21.484
43.457,12.695,9.277,34.18,-25.879
25.879,20.508,-2.93,30.273,0.977
20.508,25.879,12.207,22.949,27.832
29.297,26.367,23.926,19.043,71.289
34.668,22.949,16.113,13.672,75.684
35.645,23.438,19.043,15.137,26.855
31.25,28.32,18.066,18.066,-4.883
18.555,29.297,7.324,15.137,11.23
20.02,27.832,5.859,13.672,26.367
34.18,25.879,14.16,15.625,18.555
38.086,23.438,20.02,19.531,27.832
28.809,22.461,18.555,20.508,41.992
21.484,23.438,16.113,22.461,45.41
17.578,26.855,8.301,18.066,10.254
31.25,27.832,15.137,15.625,35.645
41.016,33.203,26.367,17.09,34.18
25.879,34.668,20.996,18.066,-19.043
12.695,27.832,16.602,17.09,-0.488
11.23,25.879,24.902,15.137,1.953
23.926,19.043,37.109,15.625,-16.602
32.227,11.23,41.016,20.508,-7.812
22.949,19.531,36.133,22.461,-4.883
13.672,27.832,32.715,22.949,74.219
8.301,19.531,28.809,18.555,21.484
8.301,15.625,29.297,14.648,-31.738
23.926,22.461,39.551,20.996,39.062
26.367,26.367,43.457,24.902,5.371
10.742,21.484,43.945,20.996,81.055
3.906,16.113,42.48,17.09,97.168
12.207,26.855,41.992,18.066,3.418
32.715,29.297,49.316,27.344,-35.645
32.715,25.879,39.551,32.227,-32.715
19.043,27.832,32.227,24.902,8.789
11.23,23.438,40.039,18.555,32.227
14.648,20.02,33.203,15.625,35.645
27.344,25.879,31.738,20.02,31.738
26.855,29.785,30.762,25.391,51.758
17.578,28.809,26.367,21.973,45.898
11.23,32.227,21.973,18.066,39.062
8.301,34.18,5.859,9.766,54.688
24.902,29.297,13.672,11.719,81.543
32.227,30.762,23.926,21.973,67.871
20.508,25.391,20.508,24.414,34.668
12.695,24.902,11.719,25.391,-9.766
9.766,42.969,8.301,19.043,-14.16
25.391,46.875,24.902,18.066,42.48
36.621,46.387,21.484,27.344,87.402
25.879,46.387,8.789,26.855,80.078
11.719,45.898,7.812,22.461,48.34
10.742,44.922,5.859,20.02,44.922
23.926,45.898,10.254,17.578,30.762
31.738,47.363,24.902,22.949,31.738
21.973,41.016,28.809,20.02,75.684
14.648,39.551,29.297,15.625,85.449
8.789,44.922,18.555,15.137,9.766
17.578,51.27,16.113,13.672,22.461
33.203,53.223,26.367,21.973,43.945
25.879,55.664,20.508,28.809,8.789
12.207,62.5,20.02,24.414,-5.371
8.301,56.152,17.09,14.648,-37.109
18.066,49.316,17.578,13.672,13.672
26.855,49.805,27.832,23.438,-0.977
19.043,47.852,32.715,29.785,-6.348
7.324,45.41,37.109,25.879,11.719
-0.977,44.434,40.527,21.973,-27.344
5.859,46.387,38.574,19.043,6.348
21.973,46.875,42.48,21.484,23.438
17.578,44.434,46.875,24.902,34.668
7.812,44.922,39.551,20.996,51.27
15.137,46.387,36.133,19.531,31.738
22.949,43.945,38.086,21.973,12.207
29.297,41.504,45.898,20.02,4.395
26.367,42.969,50.293,20.02,20.508
18.066,43.457,42.48,20.508,25.879
9.766,44.434,39.062,13.672,41.992
13.184,41.016,30.762,7.812,25.391
31.25,35.645,34.668,9.766,74.219
39.062,37.109,44.434,17.578,75.195
28.32,41.504,40.039,14.648,20.02
16.113,43.945,26.855,7.324,47.363
19.531,43.945,23.438,8.789,33.203
36.133,41.504,33.203,12.207,16.113
38.086,37.598,37.598,16.602,2.441
31.25,39.062,33.691,15.625,10.742
26.855,37.109,20.02,13.184,48.828
23.926,32.715,12.207,12.695,44.922
29.785,36.133,24.902,9.766,25.391
27.344,36.133,36.621,9.277,12.695
14.648,28.809,29.297,14.648,10.254
4.395,28.809,25.391,15.625,7.324
0,34.18,30.762,9.766,-4.395
20.996,33.691,37.109,13.672,37.598
35.645,32.715,46.387,20.508,81.543
23.438,38.086,41.504,19.531,23.926
16.602,40.527,41.016,18.066,45.41
16.113,34.18,31.25,15.625,42.48
25.879,29.785,31.25,14.16,0.488
37.109,33.203,52.246,20.996,71.289
28.32,36.621,53.711,26.367,56.641
17.09,39.062,43.945,26.855,39.551
8.789,35.156,30.273,22.461,41.504
15.625,32.715,27.344,20.508,56.152
27.832,34.18,37.598,23.438,45.898
19.043,32.227,32.227,24.902,-10.254
11.719,35.156,26.367,21.973,31.738
5.371,36.133,21.973,15.625,-23.438
6.836,35.156,22.461,14.16,-26.367
25.391,34.668,32.715,19.043,5.371
27.344,37.598,29.785,25.391,19.531
17.09,37.598,26.367,27.344,61.035
18.066,34.18,26.367,24.414,-7.324
26.367,29.297,42.48,22.461,-71.777
36.133,23.438,66.406,24.414,20.996
31.25,23.926,69.336,24.414,53.223
17.578,24.902,52.246,20.996,39.062
10.254,26.367,41.504,15.137,23.438
15.137,24.414,39.062,12.695,-10.254
26.367,28.809,38.574,15.625,-29.785
26.367,28.809,41.504,18.555,-10.254
20.996,22.949,35.156,14.648,-18.555
14.648,26.855,26.367,10.742,-41.504
13.672,28.32,34.668,9.766,30.762
27.832,25.879,39.551,14.648,41.504
36.133,20.996,30.762,23.438,-11.719
21.973,17.09,32.715,21.484,37.109
6.836,15.137,41.992,15.137,33.691
4.883,14.648,35.645,7.324,4.883
23.438,23.926,42.969,9.766,101.562
40.039,28.32,52.246,20.02,111.816
28.32,26.855,44.434,21.484,57.617
15.137,23.926,50.293,16.113,86.426
15.137,20.02,50.781,10.742,60.547
25.391,21.973,48.828,13.184,17.09
38.086,21.484,57.617,18.555,16.113
31.738,18.066,50.293,18.066,58.105
20.02,17.578,41.992,18.066,23.438
15.625,19.043,40.039,11.719,-47.852
28.32,18.555,41.016,13.184,-1.953
46.875,15.137,50.293,22.461,18.066
41.504,13.184,47.363,17.578,-11.719
30.762,6.836,45.41,12.695,46.387
24.902,8.789,36.133,10.742,46.875
26.855,20.508,28.809,4.883,-24.902
35.645,23.926,41.992,9.277,3.906
26.855,19.531,44.434,16.602,9.766
15.625,17.578,43.457,15.625,14.16
12.207,20.508,43.945,12.207,36.133
11.719,18.555,45.898,9.277,19.043
26.367,16.602,54.199,12.207,12.695
30.762,23.926,54.199,18.066,41.992
21.973,28.809,42.48,18.555,50.293
14.648,26.855,39.062,13.672,47.852
15.625,26.367,34.18,9.277,73.242
36.621,23.438,31.738,12.207,45.898
41.992,27.344,31.25,18.555,39.551
23.926,30.762,26.855,24.414,46.875
15.625,31.738,28.32,13.672,23.926
16.113,30.762,22.461,2.441,1.465
29.785,25.879,25.879,6.348,-1.953
31.738,23.926,36.621,10.742,19.531
18.555,28.809,37.598,12.695,75.195
10.742,30.762,33.203,12.695,50.293
9.277,24.902,20.996,5.859,-7.812
24.902,25.391,20.996,5.859,-19.043
32.715,31.738,18.066,14.648,27.832
23.438,27.344,12.695,19.043,22.949
14.648,26.367,15.625,18.066,21.484
14.648,36.133,11.719,15.137,46.387
25.391,26.367,26.367,14.16,22.949
33.203,21.484,43.945,20.508,-5.371
27.344,25.391,40.527,24.902,29.297
16.113,26.367,28.809,21.973,55.664
13.672,29.297,17.578,16.113,81.055
28.32,28.809,20.996,17.578,107.422
41.992,28.809,35.156,27.344,87.402
32.715,24.902,32.227,25.879,27.344
23.438,18.555,20.02,16.113,19.043
18.555,16.113,12.207,11.23,51.27
23.926,17.09,15.137,17.09,53.711
36.621,26.367,25.391,27.344,53.223
30.762,30.762,26.855,29.785,2.441
23.926,31.738,20.508,27.344,-20.508
18.555,33.691,23.438,24.902,-7.812
19.043,28.32,32.227,21.484,-30.273
33.203,25.391,40.527,26.367,-22.461
28.809,24.414,36.621,29.297,4.395
16.602,25.391,37.109,23.438,43.945
12.695,29.297,39.062,24.414,57.617
16.113,34.18,41.016,23.926,13.184
30.762,32.715,47.363,25.879,14.16
25.879,28.32,45.41,26.855,41.504
14.16,31.738,41.992,23.926,69.824
8.789,35.156,29.297,22.949,88.867
12.695,37.109,15.625,22.949,51.27
36.621,35.645,24.902,34.668,24.902
32.715,27.832,42.48,39.062,53.711
9.766,27.344,41.992,27.344,81.543
7.812,25.391,39.551,19.043,42.969
18.066,21.973,39.551,20.996,-13.184
33.203,25.391,28.809,23.926,-16.602
34.668,28.809,26.367,27.832,-18.555
21.973,28.809,36.621,26.367,6.836
15.137,27.832,31.25,20.996,25.391
13.672,26.855,24.902,14.16,-28.809
30.762,23.438,25.879,16.602,-29.297
43.457,23.438,25.391,29.297,-34.668
32.715,27.832,22.461,37.598,-14.16
20.02,25.391,16.602,33.203,60.059
21.973,28.809,6.348,24.902,3.418
36.621,38.086,8.789,30.762,-26.855
42.48,33.691,23.926,40.527,87.891
35.645,32.715,30.273,35.156,63.477
31.738,41.504,24.902,30.273,-32.715
30.762,41.992,12.695,23.926,34.668
40.039,39.551,13.672,18.555,19.043
46.387,38.086,24.414,25.391,-49.805
35.156,35.156,19.531,23.438,40.527
26.855,33.691,27.832,20.996,56.152
22.461,32.715,28.809,23.438,27.832
30.273,34.18,25.879,18.555,36.133
49.316,42.969,34.668,23.926,25.391
45.41,42.969,33.691,28.809,-2.441
27.832,41.504,31.738,25.391,7.324
22.949,43.457,23.438,24.902,22.949
30.762,39.062,27.832,25.391,56.641
43.945,38.574,39.551,30.273,45.41
41.504,38.574,40.527,36.621,26.855
34.668,40.527,41.016,37.109,63.477
28.809,39.551,33.691,31.738,33.203
25.879,43.945,29.297,30.762,-27.832
38.574,51.758,43.945,33.203,4.883
41.992,45.898,52.246,35.156,1.953
30.762,40.039,54.199,33.691,-20.02
21.973,41.992,44.922,25.879,31.25
27.344,41.016,37.598,18.555,59.082
40.527,36.621,48.828,21.484,88.867
38.574,39.551,53.223,24.902,41.504
26.367,46.875,49.805,21.973,21.484
18.555,45.898,38.574,17.578,44.922
18.066,41.504,35.645,18.066,17.578
32.715,41.016,45.898,26.855,22.949
39.551,38.574,44.434,30.273,-9.277
25.391,37.598,49.316,24.902,-5.371
13.672,37.109,50.293,15.137,14.648
