TP9,AF7,AF8,TP10,Right AUX
-14.648,28.809,33.203,0,58.594
-9.277,27.344,29.297,-0.488,36.133
-11.719,28.32,28.32,0,18.066
-15.625,28.809,32.227,6.836,26.855
-10.254,28.809,27.832,4.883,38.086
-4.883,26.367,28.32,0.488,58.594
-4.395,24.414,33.203,4.395,0.977
-12.207,24.902,29.297,1.953,-27.344
-16.113,25.391,28.809,-3.418,21.973
-11.719,24.902,33.203,-0.488,17.578
-6.348,23.926,30.273,0.488,14.648
-3.418,21.484,30.273,3.418,15.625
1.465,20.996,31.738,8.789,81.055
5.859,21.484,28.809,10.742,113.281
8.301,21.484,27.344,13.184,56.152
12.207,21.973,29.785,14.648,41.992
18.555,23.926,33.203,19.531,52.734
22.949,25.879,34.18,24.902,41.504
21.484,26.367,33.203,21.484,4.395
17.578,25.391,33.691,20.02,27.344
13.672,25.391,34.668,18.066,64.941
11.23,25.391,34.668,13.184,67.871
9.766,26.855,30.762,15.137,40.527
8.789,23.926,27.344,14.648,16.113
11.23,22.949,32.715,9.766,35.156
11.719,25.391,36.133,12.695,-6.836
6.348,25.391,30.273,10.742,-8.301
5.371,24.414,27.832,8.789,32.715
4.395,20.996,29.785,8.789,30.762
2.441,20.996,29.785,0.977,67.871
-1.465,21.484,29.297,-0.977,134.766
-4.883,19.531,28.809,-1.953,127.441
-1.465,19.531,28.809,2.441,47.852
1.465,20.996,31.738,9.766,49.805
0.488,21.484,34.668,14.16,87.891
1.465,21.973,33.691,17.578,68.359
-1.953,20.508,31.25,16.602,67.871
-4.395,19.043,29.785,17.09,51.27
-4.395,21.973,31.25,15.625,24.414
0.977,23.926,37.109,16.113,2.93
5.371,22.949,41.016,20.02,67.871
11.719,23.926,38.574,24.414,59.57
23.926,23.926,34.18,25.879,-7.324
23.926,26.367,36.133,25.879,10.254
21.484,27.832,38.574,27.344,0.977
26.367,27.832,35.645,27.344,-29.785
31.738,29.785,31.25,21.484,-30.273
33.691,30.273,30.273,18.066,-11.23
33.203,28.809,27.344,19.531,27.832
31.25,27.832,23.926,13.672,20.02
27.832,28.809,26.855,12.207,34.668
25.879,27.832,28.809,17.09,11.719
26.855,26.855,29.785,20.02,-47.363
20.996,27.832,30.273,17.578,33.203
11.23,27.832,31.25,11.719,105.957
10.254,26.855,30.273,10.742,48.34
8.301,27.344,29.785,12.207,-19.043
-0.977,28.32,28.32,10.254,-20.996
-6.348,27.344,22.949,3.906,32.715
-5.371,26.367,24.902,0.977,70.312
-3.418,26.855,27.832,7.812,58.594
1.953,30.273,24.902,9.277,-19.531
0,31.738,26.855,7.812,-88.379
-7.324,25.879,26.855,10.742,-11.719
-3.418,23.926,24.414,13.672,60.547
1.953,28.32,22.949,12.207,41.992
4.395,27.832,22.949,20.02,37.109
5.371,23.926,23.926,23.926,21.484
7.812,22.949,21.484,17.578,18.066
10.254,23.926,19.531,16.113,41.992
10.254,24.414,20.02,16.602,43.457
8.789,23.438,19.043,19.043,45.898
9.766,24.414,20.996,20.508,43.457
16.113,25.391,20.02,22.461,32.715
23.438,24.902,18.066,23.926,17.09
24.902,27.832,22.461,23.438,38.574
25.391,30.273,21.973,23.438,-6.348
23.438,28.32,21.484,23.926,-13.184
20.02,28.32,23.926,24.902,13.672
18.066,27.832,23.438,24.414,34.668
12.695,25.879,24.902,20.02,41.992
10.742,21.973,26.367,21.484,-27.832
8.789,21.484,27.344,22.949,-37.109
5.859,23.926,26.367,14.16,-27.344
1.465,22.949,25.879,5.859,55.664
-1.953,20.02,25.391,6.348,105.957
-5.859,20.508,23.438,6.348,59.082
-8.789,22.949,23.438,4.395,95.703
-6.836,22.461,21.973,5.371,30.273
-6.348,21.973,19.531,4.395,-12.207
-7.324,23.438,22.949,4.395,5.371
-8.789,23.438,23.926,3.418,-36.133
-11.719,22.461,27.832,4.395,-20.996
-3.418,21.973,31.738,7.324,9.277
-0.488,22.949,29.297,12.695,49.805
-0.977,23.926,26.855,12.695,15.625
0.488,20.02,26.855,7.812,-22.949
-1.465,17.578,22.949,6.348,14.648
8.301,19.043,22.461,17.09,-4.395
10.254,21.973,20.508,20.996,-24.414
5.859,24.414,18.555,17.09,-21.973
10.254,25.391,21.484,20.508,21.484
16.113,26.367,22.461,23.926,53.223
14.648,24.902,20.02,20.996,30.273
17.09,22.461,20.02,22.461,52.246
17.578,21.973,20.02,19.043,43.457
18.066,22.949,24.902,14.16,-5.859
17.578,23.438,25.391,13.184,-42.969
8.789,22.461,21.484,7.812,-14.648
6.348,22.949,22.461,5.371,63.965
1.953,20.508,24.414,3.906,20.02
-1.953,20.996,21.973,-0.488,-13.672
0,24.414,20.02,-0.977,84.961
1.953,24.902,23.438,0.977,109.863
-1.465,22.949,21.973,-2.93,41.992
-8.789,22.461,20.508,-0.488,-7.324
-12.695,18.066,23.438,-1.953,-30.762
-14.16,16.602,25.391,1.465,21.484
-17.09,16.113,27.344,4.883,100.098
-19.043,15.137,25.391,-2.93,60.547
-20.02,17.09,25.391,0.977,22.949
-17.578,16.113,28.809,8.301,27.832
-15.137,13.184,27.832,13.672,77.637
-18.066,14.16,24.902,13.184,72.754
-9.766,15.625,22.949,11.719,-34.668
-8.789,16.602,24.414,14.648,-13.672
-7.812,19.531,24.414,13.672,41.992
0.488,21.973,24.902,13.672,57.617
6.348,25.879,25.879,19.531,32.227
16.113,25.879,25.391,21.484,31.738
17.09,26.367,21.973,19.531,41.016
10.742,26.855,25.391,19.043,44.434
12.207,27.832,27.832,24.414,41.504
17.09,27.344,26.367,22.949,25.879
18.555,26.367,23.926,15.625,29.785
13.672,27.344,21.973,12.695,45.898
12.695,28.32,23.438,14.648,10.254
15.625,29.785,26.367,18.066,5.371
13.672,31.25,24.414,13.672,-3.418
7.812,25.879,22.949,8.301,-62.012
3.906,23.926,25.879,10.254,24.414
-3.418,25.391,25.879,7.324,29.785
-12.207,22.949,25.391,2.441,-14.648
-14.16,22.461,26.855,2.93,76.66
-17.578,22.949,28.32,-0.488,51.758
-20.508,21.973,26.367,-7.812,-19.043
-21.484,18.066,25.391,-8.789,-12.207
-24.414,15.625,24.414,-8.301,-33.203
-23.926,18.555,23.438,-4.883,-17.09
-20.02,20.508,28.809,-5.859,15.137
-14.16,19.043,28.32,-6.348,-4.395
-10.254,19.043,24.902,-0.488,62.012
-10.742,21.484,26.855,0.488,75.684
-7.324,21.973,29.297,4.395,74.219
-1.465,20.996,32.227,12.695,91.797
2.93,21.484,29.297,19.531,10.742
5.859,21.973,27.344,26.367,-49.805
10.742,22.461,29.785,25.879,39.551
14.648,21.484,27.832,23.438,62.012
15.625,23.438,25.879,22.461,4.883
20.508,28.32,21.973,21.973,-6.836
20.02,28.32,20.02,27.344,-51.27
16.113,27.344,21.973,22.949,-18.555
19.531,28.809,21.484,21.973,-4.883
20.996,23.926,20.996,21.973,-53.711
18.066,21.973,20.02,10.742,-3.418
12.695,23.438,20.508,5.371,-7.812
7.324,21.484,21.973,5.859,11.23
4.883,20.508,22.461,3.906,56.641
4.883,20.02,22.949,3.418,28.809
5.859,21.484,24.414,5.371,19.531
3.418,22.461,24.902,1.465,57.129
-2.93,23.926,25.879,0.977,43.945
-9.766,20.996,28.32,0.977,37.598
-9.766,17.09,28.32,-7.324,33.203
-8.301,18.066,25.391,-8.789,-16.602
-13.184,19.531,22.461,-4.883,-32.227
-12.695,19.043,23.926,-3.906,46.387
-9.277,20.996,25.391,-4.883,62.988
-7.324,22.461,28.809,-0.977,-24.902
-3.418,20.996,32.715,6.836,-57.129
-2.93,19.531,33.203,12.207,41.504
-5.371,19.043,31.738,16.602,25.391
-2.93,14.648,31.25,16.113,-10.254
2.441,15.137,30.273,20.02,46.387
8.789,18.555,26.855,22.949,11.719
7.812,17.578,26.855,19.043,2.441
7.324,18.066,31.25,22.461,33.691
13.184,20.996,29.785,26.367,11.719
18.066,23.438,27.832,21.973,-10.742
18.555,23.438,27.832,15.137,7.812
20.02,27.832,27.344,17.578,55.176
20.02,26.855,31.738,21.973,56.152
12.207,20.508,30.762,19.043,18.555
8.789,21.973,28.32,16.113,33.203
9.277,24.414,29.785,12.207,23.438
8.789,20.996,28.809,11.23,47.852
4.395,19.531,28.809,7.812,47.363
-7.324,20.02,27.832,-0.488,-0.977
-10.254,17.578,27.832,-1.465,19.043
-5.859,15.625,30.762,0.488,20.996
-6.348,14.648,28.809,4.395,76.172
-4.395,15.625,26.855,0.977,95.703
-8.789,16.113,31.738,-3.418,11.23
-16.113,16.113,32.227,-5.371,-0.488
-15.137,17.578,27.832,-6.348,36.133
-8.301,20.02,27.344,2.93,1.953
-6.348,20.02,31.25,10.254,14.648
-9.277,20.996,32.227,5.859,39.551
-2.93,24.414,32.715,12.695,15.625
2.441,21.973,34.18,20.02,102.051
4.395,19.531,31.738,18.555,55.664
4.395,20.02,29.785,23.926,-9.766
7.812,20.996,30.762,25.391,39.551
17.578,22.461,31.738,23.926,8.301
21.484,23.438,31.738,25.391,26.855
22.461,23.926,28.32,21.973,44.434
21.484,20.996,28.32,21.973,48.34
22.461,20.02,31.738,23.926,9.766
27.344,20.996,30.273,22.949,-11.719
27.344,21.484,28.809,19.531,34.668
20.996,20.02,29.785,15.625,19.531
20.02,19.531,28.32,14.648,13.184
15.625,20.508,29.297,11.719,14.648
11.23,20.02,33.203,10.742,83.008
13.672,20.996,30.762,13.672,73.242
14.16,24.414,32.715,12.207,14.16
6.836,22.461,33.203,9.766,-5.859
0.977,20.508,32.715,3.906,-36.133
0.977,19.531,36.133,-0.977,-15.625
-3.906,18.555,35.156,0.488,-3.906
-2.93,20.996,32.227,5.371,-53.223
-3.418,18.555,32.715,4.395,-50.781
-11.719,17.09,32.715,-2.441,34.18
-10.742,18.555,33.691,2.93,38.574
-1.465,20.996,34.18,13.184,-16.602
4.395,19.531,34.668,18.555,-64.941
4.883,19.043,34.668,19.531,-12.207
8.789,21.484,30.762,16.602,4.395
8.789,23.926,34.18,16.113,-8.301
8.301,23.926,38.086,20.996,39.062
10.742,20.996,33.691,24.902,-14.648
10.742,18.066,29.785,18.555,0.488
20.02,17.09,29.297,18.066,39.551
25.391,16.602,30.762,20.508,21.973
17.09,19.531,30.762,22.949,82.52
11.719,22.949,31.25,25.391,76.66
15.137,20.508,28.32,21.484,8.789
19.531,20.508,25.391,19.531,-35.645
18.066,21.484,28.32,17.578,-22.461
13.672,21.484,29.785,14.648,51.27
10.742,23.438,28.32,14.16,31.25
9.766,20.508,31.25,13.184,8.301
9.277,18.555,33.691,14.648,17.578
10.254,17.578,32.715,16.113,-23.926
10.254,17.09,33.203,14.16,27.832
4.883,16.602,33.203,11.23,61.035
3.418,16.602,30.762,6.348,75.684
3.418,12.695,26.367,1.465,38.086
2.93,11.23,27.344,0,-21.484
8.789,16.113,27.832,3.418,3.906
9.277,19.531,25.879,0,14.16
8.301,24.414,22.949,-8.789,28.32
10.742,25.391,18.555,-8.789,42.48
8.301,24.902,18.066,-2.93,41.992
6.348,23.926,19.043,0.977,71.777
3.906,21.484,19.531,1.953,24.902
2.93,20.02,23.926,8.301,-28.809
5.859,19.531,23.926,12.695,22.949
5.859,20.996,20.996,10.742,70.801
2.441,20.996,23.926,16.113,48.828
6.836,22.461,22.461,19.531,-38.086
10.254,22.461,22.461,19.531,42.48
9.277,21.973,24.902,15.137,79.102
11.719,21.973,22.461,11.719,-3.418
11.719,20.02,23.926,16.113,19.043
13.184,19.531,24.414,14.16,71.289
12.695,19.531,27.344,13.672,32.227
12.207,20.02,26.367,15.625,-28.32
14.648,22.949,24.414,9.766,-113.281
8.789,23.438,24.414,3.418,-109.375
5.859,24.902,20.02,3.906,-28.32
7.812,23.926,19.043,10.742,-36.621
6.348,23.438,19.531,11.23,-29.297
2.93,22.949,18.555,0.977,-22.461
1.953,20.02,21.484,-1.953,-33.691
1.465,22.461,24.902,3.906,33.203
3.418,24.902,27.344,5.371,128.906
9.277,22.949,23.926,2.93,115.234
9.277,25.391,19.531,1.953,33.691
9.277,26.367,21.484,3.906,12.207
10.254,21.484,26.367,8.789,39.551
11.719,19.043,29.785,10.254,63.477
10.254,20.02,30.273,12.207,63.965
11.23,22.949,32.227,16.602,20.996
14.16,23.926,36.621,16.602,16.602
16.113,23.926,35.645,16.113,40.039
16.602,22.949,32.715,16.113,44.434
19.043,22.461,30.762,16.602,41.016
18.066,22.461,28.32,19.043,5.859
13.672,22.461,30.762,18.555,39.062
15.137,25.391,31.25,13.184,51.27
22.949,26.855,27.344,10.742,47.852
25.879,25.391,24.902,17.09,38.574
27.344,23.438,27.832,16.602,72.266
24.414,20.996,29.785,14.16,85.938
22.949,19.043,27.832,13.672,-2.441
22.949,19.043,29.297,11.23,1.953
14.648,21.973,32.227,8.789,61.035
7.812,21.484,29.297,4.883,12.695
11.719,19.531,25.879,3.418,-27.832
13.672,21.973,26.855,4.883,44.434
8.301,21.484,25.391,5.371,37.598
6.348,20.508,24.902,5.371,23.926
4.395,21.484,25.879,5.859,56.641
2.93,20.02,26.855,4.883,82.031
1.953,20.996,29.785,2.93,102.539
6.836,21.973,29.297,4.883,65.43
11.23,19.531,29.297,9.277,5.371
7.324,18.066,30.762,16.602,-38.086
4.883,19.043,33.203,20.508,-19.531
7.812,25.879,34.668,17.578,19.043
14.16,29.297,32.227,22.461,2.93
17.09,25.879,36.621,26.855,8.789
14.648,24.902,36.621,25.879,-11.719
12.207,24.414,28.32,21.484,-12.207
10.742,25.879,28.809,21.484,49.316
14.16,30.762,32.227,25.879,29.297
18.555,32.227,31.738,25.391,10.254
20.996,30.273,28.809,20.996,23.438
25.391,31.738,30.273,24.902,25.879
23.438,33.203,31.25,28.32,30.273
19.531,30.273,31.25,19.531,44.922
23.926,30.762,34.18,16.113,-0.977
25.391,32.227,35.156,18.555,-12.207
15.625,30.273,33.691,12.695,67.871
13.184,30.762,34.18,10.742,67.383
16.602,29.785,33.691,14.16,36.133
8.301,27.832,32.715,12.207,28.32
2.441,27.344,33.203,8.789,23.438
6.836,27.832,33.691,9.766,36.133
8.789,26.367,34.668,12.207,42.969
6.348,24.414,33.203,7.812,9.277
4.883,23.926,32.715,3.418,40.039
12.207,22.949,34.18,8.301,37.598
16.113,23.926,33.691,9.766,-25.391
11.23,24.414,34.18,8.789,-3.906
9.277,21.973,33.691,12.695,35.156
8.301,21.973,32.715,20.996,76.66
7.324,24.414,32.227,20.02,27.344
9.766,25.391,29.297,15.625,15.137
7.324,23.926,26.367,21.973,33.203
9.277,24.414,24.414,23.926,20.02
17.09,25.879,27.344,22.949,-50.293
12.695,26.367,29.297,22.949,-86.426
9.766,28.32,27.832,19.043,-59.57
12.695,26.367,29.785,17.578,-30.762
10.254,23.438,28.809,16.113,-29.785
12.207,24.902,26.855,14.16,-30.762
15.137,25.879,26.367,17.09,65.918
11.23,25.879,26.855,20.996,101.074
10.742,25.391,25.391,20.02,22.949
10.254,25.879,23.438,14.648,-10.254
7.324,25.391,24.902,8.789,-20.508
10.254,24.902,24.414,8.789,2.441
6.836,24.414,23.926,12.207,-36.133
-0.488,21.973,23.926,7.812,-62.012
-4.883,23.926,25.879,3.418,-60.547
-5.371,26.855,29.297,1.465,-1.465
-1.465,27.344,29.785,-2.441,106.445
-1.953,23.926,26.855,-4.395,103.027
-3.906,22.949,23.438,-2.93,53.711
-6.836,22.461,20.996,-4.395,27.344
-9.277,18.555,20.508,-10.254,53.223
-2.93,20.508,27.344,-6.348,83.008
0.977,23.438,30.273,2.441,44.922
0.488,25.391,26.367,5.371,3.906
-0.488,23.438,25.391,7.812,-38.086
0.488,22.461,26.367,15.137,-30.762
3.418,22.461,23.926,18.555,-15.625
2.93,21.973,22.461,20.02,11.23
4.395,25.879,20.508,20.508,16.602
6.348,26.367,20.508,18.555,-59.57
8.301,25.391,23.926,23.926,-61.523
6.836,25.391,24.902,26.367,4.395
8.789,27.344,23.438,21.973,6.836
9.277,29.297,20.508,17.09,4.395
1.465,25.391,21.484,15.137,18.066
0.977,24.414,24.414,14.16,63.965
5.371,26.855,23.438,15.137,90.82
5.859,26.855,26.855,17.09,15.625
7.324,28.32,30.762,16.602,-1.465
9.766,31.25,31.25,13.672,71.289
6.836,29.785,30.273,11.23,36.133
6.836,27.344,29.785,15.625,-25.391
10.254,30.762,30.273,15.625,48.34
10.254,33.691,26.855,8.301,40.039
10.742,34.18,26.367,8.789,-10.254
13.672,32.715,26.855,10.254,51.758
15.137,32.227,27.832,9.766,50.293
10.742,31.738,31.738,11.719,2.93
14.16,28.32,28.809,13.184,-3.906
14.16,29.297,27.344,15.137,18.555
9.766,29.785,28.32,14.16,21.973
15.137,27.832,27.832,15.137,-2.93
18.066,25.391,29.785,21.973,18.066
17.578,22.949,29.297,29.297,28.809
9.277,22.461,29.785,28.809,38.086
4.395,19.531,33.203,32.227,51.758
9.766,20.508,34.668,33.691,9.766
14.648,24.414,34.668,26.367,-22.461
13.672,28.809,31.738,26.855,15.625
8.789,28.32,29.785,24.414,47.852
11.23,25.879,30.273,22.461,22.461
18.555,26.367,32.227,20.02,53.711
20.996,27.344,30.762,18.066,23.438
20.508,27.832,26.367,16.113,-22.949
16.602,25.391,26.855,12.695,0.977
10.742,21.484,29.785,11.719,19.043
15.137,22.461,29.297,12.695,54.688
18.555,24.902,29.297,12.695,65.43
16.113,27.832,30.273,13.672,56.641
12.207,27.344,30.273,13.672,17.09
12.695,24.902,30.762,14.16,-3.418
15.137,23.438,31.25,17.09,-19.531
13.184,22.461,31.738,17.09,-43.945
12.207,25.391,29.297,14.16,36.621
7.324,21.973,29.785,9.277,56.641
6.836,20.02,32.715,7.812,-22.461
8.301,21.484,31.738,9.277,-38.086
6.348,20.508,31.738,10.742,-38.574
7.812,21.973,30.762,11.719,-38.086
9.277,22.461,28.809,12.695,-38.574
3.418,20.02,31.25,13.672,14.648
7.812,22.461,32.227,19.043,39.062
7.812,23.438,33.691,23.926,7.812
4.395,23.438,35.645,24.414,36.621
7.812,26.367,33.203,23.926,20.508
6.348,26.367,31.738,26.367,58.594
10.254,26.367,33.691,27.344,77.148
8.789,24.902,35.156,27.344,35.156
4.395,24.902,34.18,25.879,40.527
9.277,28.32,32.227,25.391,78.613
11.719,25.879,31.738,22.461,71.777
11.719,26.367,33.691,21.484,46.875
14.648,29.785,35.156,20.508,0.977
18.555,29.785,29.785,5.859,-2.93
21.973,29.785,25.391,3.906,9.277
23.926,29.297,28.809,12.695,-15.137
24.414,29.785,29.785,10.742,14.16
23.926,31.25,27.344,5.371,41.992
22.461,30.273,31.738,5.371,60.059
17.578,31.25,31.738,5.859,21.973
13.672,30.762,26.367,5.371,17.09
15.625,28.32,25.879,9.766,43.945
16.113,28.809,26.855,8.301,30.762
18.066,28.809,28.32,6.836,10.254
15.137,29.297,31.25,14.648,-11.719
10.254,29.297,34.18,18.555,-20.508
8.789,30.273,29.297,14.648,-7.812
7.324,30.762,24.902,13.184,8.301
7.324,30.273,27.344,18.555,58.105
8.301,30.762,27.344,22.461,44.922
4.883,31.738,24.414,19.531,-6.836
2.441,31.25,23.438,13.672,39.062
4.883,30.273,27.344,14.648,34.18
6.348,30.273,31.738,18.555,59.082
3.906,30.273,34.18,24.414,58.594
-0.977,29.297,31.25,18.555,17.09
-1.953,29.297,30.762,13.184,2.93
-1.465,31.738,34.18,12.695,4.883
0,30.762,32.227,10.254,-7.324
-0.488,28.809,30.762,17.578,-33.691
3.906,28.32,32.715,19.531,15.625
4.395,28.32,29.785,11.719,59.57
2.441,28.809,27.344,8.789,10.742
3.418,27.832,27.344,7.812,-5.859
6.348,27.344,28.32,10.254,-2.441
8.789,29.785,30.273,9.766,-6.348
12.207,27.832,29.785,5.371,32.715
14.16,25.879,32.715,6.348,62.5
13.672,27.344,32.715,8.301,30.762
14.16,29.297,30.273,8.301,13.672
12.695,29.785,35.156,6.348,33.203
11.719,29.297,36.133,8.789,11.23
9.277,27.344,33.203,12.207,26.855
9.766,22.461,32.715,13.672,-6.836
7.324,20.508,36.621,16.113,-28.809
8.301,23.926,36.621,17.578,-34.18
10.742,21.973,36.621,20.02,-14.648
9.766,18.555,37.109,21.973,32.715
8.301,19.531,33.203,22.461,40.039
3.418,20.02,33.691,22.461,82.031
6.348,21.973,29.785,24.902,48.828
9.277,25.391,27.832,22.949,36.621
7.812,24.414,30.762,15.137,20.996
13.672,23.926,30.273,17.09,-16.113
17.09,24.414,28.32,19.043,-54.688
12.695,24.414,24.902,15.625,-12.207
13.184,25.879,23.926,14.16,2.93
14.16,23.926,25.879,12.207,-40.527
14.648,21.973,25.391,17.09,62.012
24.902,22.949,24.902,21.973,59.57
23.438,25.879,24.414,13.184,27.344
13.672,25.391,21.484,6.836,75.684
14.648,23.926,20.996,7.324,44.434
14.16,24.902,22.461,4.395,1.953
9.766,24.414,21.484,3.906,69.336
7.324,24.902,18.066,1.465,22.949
2.441,23.926,18.555,2.93,9.766
-4.395,21.484,19.043,0,43.457
-6.836,17.09,21.484,-2.93,35.645
-8.789,16.113,23.926,0.488,16.602
-12.695,17.578,21.484,-2.93,19.531
-10.742,15.137,20.02,-6.836,22.461
-11.23,12.695,24.414,-6.348,35.645
-14.648,13.184,25.391,-6.836,-5.859
-10.742,14.16,24.414,-1.953,-45.898
-8.789,12.695,23.438,3.906,10.254
-9.766,11.23,23.438,0.977,106.934
-8.789,16.602,25.391,0.488,74.219
-7.324,18.555,23.926,2.93,49.805
-8.301,14.648,24.414,3.906,35.645
-6.836,14.16,25.879,8.789,15.137
0,18.555,21.973,8.301,45.41
0.977,20.996,20.508,7.324,60.059
-2.93,20.02,21.484,7.324,95.703
-3.906,20.996,19.043,4.883,96.68
-0.488,22.949,21.973,5.371,58.594
4.395,22.461,24.414,7.812,42.48
5.859,21.484,23.438,10.254,42.969
9.766,22.461,23.926,7.812,27.344
7.812,22.461,24.414,8.301,18.555
2.93,20.508,24.902,10.254,19.531
2.441,20.02,24.902,2.93,75.195
1.465,22.949,23.438,0,23.926
0.488,23.438,25.391,4.883,-19.531
0.977,21.484,27.344,7.324,24.414
3.906,20.508,27.832,9.277,-24.414
7.812,22.461,25.391,10.254,-40.527
5.859,21.973,29.785,12.207,-0.977
2.93,21.973,35.156,9.766,36.133
-1.465,24.902,34.18,9.277,36.621
-8.301,26.367,34.668,13.184,-0.488
0.488,27.344,33.691,11.719,-13.184
0,25.391,31.25,8.789,57.129
-8.789,21.973,31.25,9.277,48.34
-12.695,18.555,32.227,12.695,31.25
-14.648,17.578,31.25,14.16,71.777
-11.719,20.996,29.297,10.254,38.086
-7.812,20.996,27.344,7.324,-14.16
-8.789,17.09,26.367,4.395,-18.066
-8.789,18.555,25.879,4.395,-23.438
2.441,23.438,22.949,10.742,-63.965
10.742,22.949,17.578,7.324,-64.941
7.812,20.996,15.137,-1.465,-59.082
15.625,22.461,18.066,-4.395,-8.301
25.391,23.926,19.531,0.488,45.41
24.902,25.879,20.02,9.766,46.875
20.02,26.855,23.438,15.625,65.43
16.602,26.367,19.531,11.23,7.324
18.066,26.855,20.996,8.789,-38.574
16.602,28.32,25.879,14.648,-12.207
10.254,27.832,25.391,12.207,-19.531
8.301,21.484,24.414,7.812,-29.297
3.906,20.02,26.855,10.742,-90.82
0.488,23.926,29.785,8.789,-89.355
3.418,25.879,28.809,5.371,-0.488
5.371,26.367,28.32,5.859,81.055
11.23,29.785,28.809,9.766,66.406
13.184,30.273,27.832,11.719,28.809
10.742,28.809,27.344,8.789,46.387
8.301,29.297,29.297,7.812,73.73
6.836,29.297,27.832,8.301,119.141
4.883,27.832,26.367,10.254,37.598
6.348,26.367,24.414,14.16,-34.668
6.836,25.391,24.902,16.113,37.109
0.977,27.344,27.832,15.137,62.5
-0.488,27.832,30.273,10.254,46.875
2.93,28.32,32.715,5.371,23.926
2.93,30.273,28.32,3.418,-2.441
1.953,30.762,24.902,3.906,19.531
5.371,30.762,29.785,8.789,65.918
6.348,31.25,30.273,5.859,33.691
6.348,32.227,29.785,2.441,12.207
8.789,32.715,26.367,1.953,-8.789
3.418,30.273,25.879,1.465,-17.09
-5.859,30.762,28.809,1.953,29.785
-1.953,32.715,27.832,1.465,40.039
7.812,28.32,27.832,2.441,23.438
10.742,28.32,29.297,5.371,58.105
11.23,30.762,29.785,11.23,98.633
12.695,30.273,29.297,11.23,32.715
11.719,32.227,29.297,4.883,24.414
6.836,33.203,29.785,4.395,66.406
0.488,32.227,32.227,6.348,24.414
-3.418,27.344,32.715,3.418,-16.602
-6.348,22.461,34.18,1.465,4.883
-3.906,25.879,33.691,0.977,15.137
-2.441,27.832,32.715,1.953,29.297
-4.883,25.391,31.738,6.836,1.465
-5.859,23.926,28.32,5.371,-10.742
-7.324,21.973,27.344,6.836,21.484
-3.906,25.391,28.32,13.184,29.785
4.883,27.832,26.855,19.043,-12.207
2.441,22.949,24.414,17.578,-31.25
-3.906,20.996,29.297,12.207,14.648
-1.465,27.832,31.25,9.277,7.324
1.953,32.715,29.297,9.766,4.883
4.883,28.809,29.297,9.277,24.414
0.977,23.438,29.297,8.301,39.551
0.488,26.367,26.855,8.301,79.102
3.906,30.762,27.832,5.859,8.301
6.836,29.297,29.297,6.348,20.508
4.395,27.344,28.809,7.812,27.344
4.883,26.855,27.832,10.254,-15.625
8.301,27.344,22.949,11.23,12.207
13.672,28.809,26.855,15.137,-2.441
14.648,27.344,32.227,15.625,14.648
13.184,26.367,29.297,14.16,49.316
16.113,27.832,29.297,20.996,74.707
14.648,31.25,26.855,23.926,-18.555
11.719,34.18,25.391,16.602,-47.852
12.207,33.691,24.414,15.625,-12.695
19.043,33.203,22.461,19.531,-25.879
17.09,34.668,24.414,17.578,-18.555
11.719,36.133,25.391,17.09,31.738
11.719,35.645,26.855,15.137,72.754
6.836,35.645,26.855,6.836,41.504
0.977,36.621,24.902,6.836,8.301
-0.488,33.203,27.344,5.859,42.48
0.488,29.785,30.762,6.348,64.453
2.441,32.715,29.785,14.16,34.18
3.418,31.738,30.762,15.137,-6.836
2.441,30.273,31.25,13.672,48.828
7.812,33.691,30.762,20.02,60.059
14.648,33.691,30.273,24.902,33.203
17.578,32.715,31.738,25.879,62.988
20.508,31.25,32.715,27.344,41.504
23.438,31.738,32.227,31.25,-16.113
24.414,34.18,33.691,32.715,69.336
24.414,34.18,32.227,28.809,22.461
16.602,32.227,31.25,21.973,-32.227
12.207,34.18,33.691,18.066,11.23
20.02,35.156,34.668,22.461,-38.086
21.973,34.18,33.203,20.508,-29.297
20.02,34.668,33.691,21.973,13.184
18.066,32.227,33.691,21.973,4.883
20.508,30.273,32.715,20.02,0.488
17.578,32.227,34.668,22.949,17.578
8.301,30.762,35.156,20.508,-57.617
7.324,27.832,34.18,16.113,-38.086
4.883,26.855,35.156,12.695,44.922
4.395,24.414,37.109,11.719,22.461
3.906,23.438,37.598,13.672,14.16
-0.977,22.949,40.039,17.09,-19.531
-5.371,20.508,43.457,13.184,-13.672
-0.977,24.414,43.457,10.742,3.418
-2.93,23.926,38.574,9.277,-0.488
-8.301,23.438,41.992,6.348,52.734
0,27.832,47.363,10.742,42.48
5.371,28.32,46.387,12.695,23.438
5.371,26.855,41.504,10.742,24.902
8.789,28.809,38.574,14.648,20.02
8.301,30.762,39.551,18.555,20.996
8.789,28.809,38.086,21.973,-47.852
12.695,26.855,40.527,26.367,-70.801
9.766,28.809,40.527,24.902,-45.898
6.836,29.297,37.109,23.438,-6.348
5.859,27.344,37.598,22.461,20.02
3.906,24.414,37.598,18.066,44.922
10.254,27.832,39.062,18.066,32.715
13.672,30.762,36.133,22.949,-20.508
5.371,27.344,31.25,16.113,27.344
4.883,28.32,30.273,9.277,57.617
10.742,27.344,29.785,9.277,17.09
9.766,24.902,31.738,9.277,32.715
1.953,25.879,31.25,10.742,64.453
4.395,24.902,28.32,13.672,70.312
2.441,24.414,32.227,8.301,-9.277
0,22.949,36.133,8.301,-13.184
6.348,20.02,32.715,14.16,48.828
-0.488,19.531,32.227,12.207,57.129
-3.906,19.531,32.715,12.695,-30.273
-3.906,22.461,33.691,14.16,-38.086
-13.184,23.926,33.691,6.836,29.785
-10.742,26.367,35.645,-1.465,16.602
-9.766,25.879,34.668,-5.371,70.801
-15.137,25.391,27.344,-8.789,113.77
-18.066,23.926,24.414,-10.742,11.719
-19.531,22.949,28.32,-6.836,-30.762
-13.184,24.902,28.32,0,-32.227
-10.742,25.879,25.391,0.977,-61.035
-9.277,28.809,24.414,5.859,-48.828
-6.836,29.297,26.367,7.324,-41.992
-5.859,25.879,29.785,7.324,-15.137
-3.906,24.902,26.855,9.766,-16.602
0,28.32,26.855,7.324,-3.906
2.93,28.809,27.344,8.789,6.348
2.441,26.367,26.855,13.184,52.734
5.371,27.344,27.832,17.09,63.477
8.789,27.832,23.926,18.555,28.809
12.207,26.855,25.391,13.184,90.332
14.648,28.809,25.879,7.324,32.227
6.348,29.297,23.438,9.766,-27.344
0,29.785,25.391,12.695,31.738
5.371,30.762,23.926,8.789,65.43
5.859,30.273,21.484,5.371,39.062
11.23,31.25,19.531,6.348,69.336
5.371,31.25,19.043,1.953,92.773
2.441,28.809,22.949,-1.953,48.828
-0.488,26.855,24.902,9.277,70.801
-6.836,25.879,21.973,6.836,95.703
-3.906,27.832,17.09,5.371,64.453
-3.906,24.902,16.113,6.836,42.969
-9.277,26.367,17.578,6.836,62.5
-4.395,25.879,17.09,6.836,47.363
-1.953,19.531,17.578,10.742,2.441
-17.09,19.531,15.625,15.625,25.391
-12.207,24.902,12.207,2.441,20.508
-3.418,26.367,12.207,-3.418,18.555
1.953,25.879,11.719,15.625,14.16
11.719,29.297,12.695,41.016,-47.852
12.695,28.809,12.207,42.48,-54.688
1.953,27.344,7.324,19.043,-32.715
-5.371,25.879,6.836,35.156,17.09
1.953,27.832,10.742,42.969,38.574
7.324,31.25,10.254,3.418,9.766
-3.418,29.297,14.16,-16.113,24.902
0.488,30.273,20.996,-12.207,22.949
4.395,33.203,29.297,12.695,19.531
9.277,33.203,41.992,7.324,40.039
10.254,33.203,52.246,-13.672,19.043
-0.977,35.156,68.359,-14.648,-29.297
2.93,38.574,83.008,-32.715,35.645
7.324,39.551,92.773,-26.367,87.402
-19.531,37.109,105.469,-21.973,18.066
-48.828,36.133,114.746,-34.18,5.859
-68.848,39.062,120.117,-45.898,45.898
-95.215,33.691,122.07,-50.293,34.18
-128.418,27.344,128.418,-61.523,21.484
-156.25,24.414,137.695,-79.59,41.504
-166.504,22.461,142.09,-82.031,14.648
-192.871,18.066,145.996,-86.914,-27.832
-224.609,11.23,146.484,-90.82,-1.465
-252.441,6.348,144.531,-93.75,38.086
-274.414,2.441,144.043,-103.027,-9.766
-280.273,-0.977,136.23,-110.84,15.137
-281.738,-3.906,134.766,-116.699,82.031
-288.086,-7.324,131.836,-121.094,45.898
-300.781,-16.113,121.582,-125.977,-14.648
-314.453,-24.414,122.559,-132.324,-4.883
-321.777,-28.809,121.094,-134.277,39.551
-319.336,-31.25,113.77,-136.719,23.926
-314.941,-35.156,105.957,-145.996,8.301
-321.289,-46.387,99.609,-154.297,-8.301
-324.219,-51.27,100.098,-151.367,70.312
-323.73,-51.758,96.191,-148.438,59.57
-317.871,-49.316,93.262,-145.508,-31.25
-312.012,-50.293,86.914,-144.043,-33.691
-312.988,-54.688,82.031,-146.484,36.133
-308.105,-55.664,88.867,-139.16,25.879
-294.922,-54.199,84.961,-131.836,34.18
-278.32,-50.293,73.242,-133.301,63.477
-264.648,-47.852,69.336,-132.812,62.988
-253.418,-43.945,69.336,-125,112.305
-240.723,-45.41,70.312,-117.676,94.727
-234.375,-50.781,71.777,-112.793,95.703
-222.656,-46.875,73.73,-105.469,59.082
-205.566,-38.086,73.242,-101.562,9.766
-194.824,-37.598,68.359,-89.355,19.043
-177.246,-39.062,67.871,-76.66,-25.391
-156.738,-34.668,73.242,-71.289,-81.543
-143.066,-30.273,74.707,-64.453,-27.344
-125.977,-25.879,79.102,-55.176,-6.836
-112.305,-24.414,83.984,-47.852,44.922
-103.516,-22.949,88.379,-40.527,75.684
-93.262,-19.531,91.309,-30.273,43.945
-83.008,-20.02,86.914,-22.949,57.129
-73.242,-21.484,85.938,-19.043,21.484
-63.965,-17.578,86.426,-17.578,-20.02
-54.199,-14.16,83.496,-16.113,-20.996
-44.434,-12.207,84.961,-11.23,5.371
-37.109,-7.324,84.473,-8.789,50.781
-31.25,-1.953,81.055,-3.418,43.945
-18.555,3.418,82.031,3.418,-9.766
-8.789,10.254,82.52,4.883,-1.465
-1.953,13.672,79.59,4.883,44.434
4.883,10.254,76.172,7.812,52.246
7.812,9.766,75.684,15.625,-12.207
15.137,15.137,75.195,22.461,10.254
21.484,19.043,74.707,22.461,40.527
20.508,18.066,72.754,24.414,4.395
21.973,17.09,68.848,26.855,1.953
27.344,17.09,69.824,28.809,-6.348
26.367,18.066,70.312,27.344,-17.578
26.855,20.02,68.359,25.391,0
38.086,23.926,65.43,30.762,-19.531
48.34,25.879,64.453,34.18,-21.484
47.852,25.391,67.871,34.18,13.672
47.363,25.879,64.941,37.109,37.109
54.688,27.832,60.059,42.48,18.066
60.547,27.832,58.105,42.48,21.973
74.707,28.32,56.152,47.363,12.207
76.66,28.32,52.734,50.293,-30.762
75.195,30.762,48.34,48.34,3.906
83.008,31.25,45.41,51.758,30.762
87.402,33.203,49.316,48.828,8.789
95.703,35.645,48.34,44.434,19.043
98.633,32.715,41.016,42.969,19.043
100.098,33.691,37.598,43.945,4.395
99.121,36.133,38.086,41.016,2.441
96.68,35.645,38.574,41.016,18.555
102.539,35.645,40.527,45.41,18.066
102.051,35.645,40.527,39.551,-6.348
96.191,33.691,38.086,32.715,39.551
92.773,29.785,35.156,30.273,82.031
86.914,27.832,34.18,28.32,79.102
89.844,30.762,32.715,29.297,100.098
93.262,30.273,31.25,31.25,41.016
88.867,27.344,32.715,25.391,-35.156
94.727,25.391,31.25,26.367,28.809
96.68,31.25,33.691,35.156,58.105
99.121,34.668,41.992,38.574,85.938
92.773,27.344,40.527,30.273,37.598
76.172,25.391,29.297,16.113,-7.324
73.73,32.715,26.855,15.625,37.598
67.871,27.344,31.25,15.625,1.953
61.035,21.484,35.645,8.301,21.484
53.711,24.414,29.297,-0.488,37.598
38.086,23.926,20.02,-12.695,14.648
34.18,33.691,24.902,-12.207,1.953
29.785,35.645,24.414,-8.301,-4.395
27.344,38.086,20.02,-15.625,-6.348
24.902,47.852,23.438,-24.902,4.883
18.066,40.527,24.902,-34.668,9.277
19.043,41.992,21.973,-33.691,-0.488
9.766,51.27,17.09,-45.41,-22.461
1.465,52.246,19.531,-56.641,0.488
0,64.941,20.996,-56.152,41.016
-11.719,62.5,17.578,-66.406,33.691
-18.066,51.758,15.625,-75.195,52.734
-20.02,64.941,18.555,-74.707,6.348
-24.414,67.383,17.578,-75.195,-92.285
-33.203,61.035,12.207,-81.543,-57.617
-29.785,62.988,10.742,-76.66,-9.277
-26.855,64.941,8.301,-75.684,0.977
-37.598,62.012,3.418,-83.496,-14.648
-37.598,64.453,4.883,-83.984,-8.789
-30.273,63.965,5.859,-78.125,36.133
-29.785,62.012,2.441,-76.66,-7.812
-28.809,65.43,1.465,-70.312,-8.301
-25.879,63.477,0.977,-67.871,14.648
-25.391,62.012,-3.906,-64.941,-20.02
-19.043,62.988,-1.465,-55.664,-24.902
-16.113,60.547,-0.488,-61.035,51.27
-15.625,60.059,0,-60.547,97.168
-10.254,59.57,-2.441,-55.664,75.195
3.906,58.594,-6.836,-53.711,-4.395
18.066,57.129,-6.348,-50.781,-4.883
24.902,56.641,-4.883,-37.109,28.32
25.391,56.641,-4.883,-20.02,78.125
27.832,52.734,-6.348,-12.207,68.848
36.621,47.852,-5.859,-3.906,49.805
36.621,47.852,-0.977,4.883,84.473
33.691,47.852,0.488,10.254,50.781
38.574,46.387,8.301,20.996,47.363
46.387,44.922,14.16,33.691,27.832
49.316,39.551,7.812,29.297,29.785
48.34,35.645,4.395,22.949,93.75
53.711,36.133,4.395,28.809,50.781
58.105,34.18,5.371,36.621,-1.953
58.594,30.762,5.859,42.969,8.301
56.641,25.391,7.812,39.062,42.48
48.34,20.996,9.766,31.738,45.898
52.246,24.414,9.277,38.574,104.492
56.641,23.926,10.254,43.457,99.609
58.105,17.09,15.137,46.875,-27.344
60.059,16.113,18.066,51.758,-24.414
59.082,17.09,16.602,47.852,28.32
62.988,14.648,17.09,46.387,40.039
64.941,13.184,20.508,48.828,47.852
63.965,15.137,20.02,52.734,36.133
59.57,13.672,19.531,45.898,66.406
57.617,11.719,20.508,39.551,34.668
56.641,14.648,21.484,40.527,26.855
56.641,15.625,19.531,39.062,8.301
54.199,14.16,15.625,36.133,-54.199
49.805,13.672,15.625,34.668,25.391
48.34,14.16,17.09,34.18,65.918
51.27,12.695,13.184,31.738,76.172
44.922,12.207,10.254,36.133,33.203
46.387,13.184,12.695,41.992,-42.48
57.129,15.137,11.719,41.992,-22.461
57.129,17.09,9.766,45.41,-8.301
59.57,18.555,14.16,46.387,-18.066
63.965,19.043,19.043,48.828,20.02
58.594,16.602,18.555,50.293,42.48
52.246,16.113,15.137,45.41,7.324
47.852,16.113,19.043,42.48,35.645
43.945,18.066,19.043,40.039,38.574
43.945,27.344,25.879,46.387,1.953
34.18,26.367,25.391,42.48,28.32
19.531,19.043,16.602,30.762,47.852
21.973,20.996,20.508,28.32,0.488
24.414,27.344,18.066,22.461,-6.836
2.93,27.832,13.672,2.93,2.93
-10.742,27.344,16.602,-10.254,6.348
-8.301,32.715,16.602,-14.648,8.301
-21.973,35.156,17.09,-25.879,-23.926
-35.645,37.598,20.996,-37.109,-29.785
-44.922,37.598,17.578,-51.27,-25.879
-53.711,34.668,9.766,-64.453,-5.371
-56.152,40.039,3.906,-69.824,-49.316
-57.129,43.457,6.836,-73.242,-9.766
-49.316,40.039,14.648,-63.477,63.965
-53.223,45.41,10.254,-65.43,28.809
-64.453,48.34,3.906,-80.078,14.648
-57.617,44.922,3.906,-78.125,5.859
-54.688,44.922,2.93,-74.219,-10.254
-55.176,46.875,5.859,-70.312,25.879
-46.387,50.293,7.324,-60.547,16.113
-37.598,50.293,5.371,-47.852,-5.859
-27.344,52.246,5.371,-33.691,7.324
-13.184,54.688,4.395,-24.902,36.133
1.953,50.781,6.836,-11.719,70.312
14.648,51.27,8.301,1.465,33.691
21.484,50.781,5.371,9.277,-10.254
31.25,46.875,4.395,21.484,40.039
47.363,44.434,4.883,32.715,38.086
57.617,41.504,5.859,42.48,-8.301
63.477,39.551,11.23,52.246,13.672
73.73,38.086,11.719,59.082,79.102
83.008,36.621,7.812,65.43,41.504
90.82,36.621,9.766,74.707,-14.16
87.891,36.133,12.695,80.078,20.02
84.961,32.227,10.742,78.125,4.883
90.332,28.809,6.348,77.637,-18.066
88.867,28.32,6.348,80.078,5.371
85.938,27.344,6.348,77.148,-1.465
85.938,26.855,5.859,75.684,-30.273
92.773,26.855,4.883,83.496,-8.789
90.82,25.391,4.883,84.961,29.785
91.309,22.461,8.789,85.938,44.922
91.797,20.996,11.719,85.449,38.086
80.566,17.578,14.16,84.473,82.031
84.961,16.602,13.672,90.82,120.117
86.426,19.043,14.648,89.844,104.98
80.566,17.578,18.066,85.449,39.551
83.008,16.113,20.02,86.914,-1.953
81.543,15.137,20.02,85.449,-41.504
74.219,15.625,17.578,82.031,-20.996
76.66,20.996,20.508,81.543,74.219
79.59,20.996,24.902,83.496,64.453
78.125,21.484,24.902,84.473,20.02
74.219,22.461,26.855,81.543,47.852
65.918,19.531,27.344,73.73,34.668
64.941,21.973,27.832,74.219,-4.395
67.871,24.414,27.832,75.195,14.16
66.406,26.855,25.879,69.336,25.391
61.523,27.344,28.32,69.824,10.742
62.5,24.414,31.25,68.848,28.32
57.617,23.438,30.762,62.012,87.891
53.711,24.902,32.715,57.129,57.129
52.734,26.367,32.715,51.758,-8.301
51.758,26.855,29.297,47.852,6.836
50.293,27.832,30.762,47.852,6.836
45.898,24.414,30.762,39.551,41.992
43.457,20.508,29.297,37.598,44.434
46.387,22.949,31.738,43.945,17.578
47.852,25.879,34.18,41.016,67.871
42.969,25.879,35.156,38.574,-2.93
41.016,24.414,35.156,41.504,-73.73
40.527,23.438,36.133,41.504,1.465
37.109,22.461,36.133,40.527,25.391
36.133,23.926,35.645,40.039,-62.988
30.762,20.996,32.715,35.156,-49.316
21.973,18.066,28.32,30.762,43.457
21.973,16.113,29.297,31.25,43.945
27.832,21.484,30.762,34.18,40.039
25.879,25.879,28.809,29.785,58.105
20.508,22.461,26.367,28.32,76.172
25.391,22.949,27.344,29.785,69.336
29.785,23.926,29.785,28.32,93.75
20.02,22.949,26.367,26.855,33.203
22.949,23.438,23.926,31.25,-10.254
28.809,24.414,24.902,36.133,30.762
20.996,23.438,23.926,35.156,3.418
23.926,22.461,24.902,33.203,20.508
27.344,23.438,29.297,34.668,64.453
24.414,24.414,25.391,36.621,44.434
21.973,26.855,25.391,34.18,48.34
20.02,26.367,27.832,28.809,62.988
18.555,23.926,25.879,23.438,55.176
19.043,22.461,24.902,19.043,-4.395
20.508,23.438,23.438,20.508,-51.758
22.461,23.926,22.461,18.555,-16.602
20.02,21.973,21.973,17.09,-7.324
20.508,27.832,22.461,11.719,11.719
23.438,30.762,22.461,6.836,0.977
20.02,28.809,22.949,9.277,-40.039
14.648,28.32,21.973,12.695,-47.852
14.648,30.762,22.949,9.277,-40.527
14.16,32.227,22.461,7.324,-64.453
11.23,29.785,20.508,10.742,-22.461
9.766,28.32,24.414,19.043,42.48
8.789,27.344,25.391,20.996,48.828
10.254,28.809,26.367,17.578,16.602
10.742,27.832,27.832,18.555,-33.203
8.301,23.926,26.855,16.602,-32.715
10.254,25.391,25.879,16.113,42.969
10.254,25.879,25.879,14.16,-0.977
7.324,25.391,31.25,13.672,-10.742
13.672,26.367,30.273,18.555,46.387
15.137,26.367,28.32,20.996,24.414
10.742,26.367,25.391,20.508,35.156
11.719,27.832,21.484,14.648,23.438
15.625,30.762,24.414,19.531,20.508
14.16,31.738,26.855,22.461,48.34
7.812,29.785,25.879,14.648,86.426
10.742,27.832,21.484,10.742,94.727
14.648,28.32,23.926,9.766,51.758
7.324,28.32,28.809,13.184,4.883
5.859,27.832,26.367,14.16,21.484
11.23,29.297,25.879,12.207,44.922
13.672,31.738,23.926,13.672,30.762
10.254,34.668,20.02,11.719,12.207
7.324,35.645,22.949,12.695,8.789
5.371,34.18,22.949,13.672,34.668
8.301,36.133,22.461,9.277,34.668
12.207,36.133,22.949,13.184,58.105
9.766,33.691,21.484,20.02,-4.395
11.719,34.18,23.438,13.672,-41.016
11.719,34.668,24.902,10.742,-1.465
10.742,34.18,25.391,14.16,56.152
14.16,33.691,20.02,15.137,57.129
13.184,35.645,19.531,13.184,58.594
16.113,34.668,20.508,11.719,43.945
18.066,31.25,18.555,10.254,17.09
12.207,31.738,21.484,10.742,34.18
2.93,32.715,23.926,7.324,41.992
0,31.25,18.555,1.953,9.277
-0.488,29.297,19.531,4.395,-14.16
-1.465,29.297,20.508,3.418,39.062
-0.488,25.879,18.066,-1.953,5.371
2.441,24.902,22.461,4.883,-54.199
0.977,26.855,21.484,9.766,-18.066
-4.883,27.832,20.508,2.93,10.254
-1.953,29.297,23.926,5.859,21.973
1.465,29.785,25.879,5.859,32.715
1.465,30.762,23.926,1.465,66.895
1.465,28.32,20.996,2.441,44.434
-1.953,27.344,19.531,-5.859,-4.395
0.488,26.367,20.996,-8.301,62.988
7.812,26.367,21.484,-1.465,36.133
4.883,24.902,21.484,-5.371,-13.184
-1.465,23.926,20.508,-2.93,-27.344
1.953,26.367,21.973,3.906,-13.672
2.441,25.391,23.926,7.324,-1.465
-3.418,22.461,25.391,5.859,22.461
-4.883,24.902,24.414,4.883,46.875
0,27.832,20.508,10.254,31.738
1.465,26.367,22.461,10.742,55.176
-0.488,25.879,23.926,-1.465,34.18
-0.977,27.344,22.461,-1.953,44.434
-0.488,28.32,24.902,8.301,42.48
4.883,28.32,26.855,7.812,65.918
3.418,29.297,26.367,-0.488,77.148
-5.371,27.344,26.367,0.977,37.598
-4.883,23.926,26.367,8.301,16.113
-2.441,24.902,23.926,8.301,32.227
-2.93,25.391,19.531,3.418,-19.531
-3.418,24.902,19.531,0.488,-20.02
-4.883,24.414,23.438,2.441,3.906
-5.371,25.391,20.508,-2.441,0
-1.953,26.855,20.508,-3.906,21.484
-3.906,25.879,23.926,2.93,-14.648
0.977,26.367,19.043,1.953,-39.062
2.441,29.785,18.555,-4.395,38.574
-5.371,28.809,24.414,-0.488,64.453
-1.465,31.738,27.344,4.395,30.273
3.418,34.18,25.879,2.93,-7.812
5.371,30.273,21.973,3.418,20.02
7.324,31.25,21.484,4.395,38.574
11.23,30.762,23.438,8.789,4.883
14.648,30.762,21.484,12.207,4.883
12.207,35.645,17.09,3.418,25.391
9.277,30.762,12.695,-0.488,28.809
7.812,30.273,15.625,6.836,5.371
5.371,34.18,18.555,3.418,12.695
8.789,34.668,19.043,6.836,31.738
13.184,33.203,23.438,11.23,18.555
7.812,44.922,21.484,6.836,15.137
0,68.359,18.066,7.812,30.762
-0.977,74.219,19.531,5.859,2.93
6.836,73.73,20.02,7.324,-22.949
4.883,74.219,21.973,9.766,18.555
-1.953,72.754,21.484,7.812,33.691
0,69.336,16.113,6.836,9.766
0,63.477,12.695,0.977,-1.465
-3.418,60.547,15.137,-2.441,-33.691
0.977,61.523,18.555,1.465,-48.828
7.812,62.012,18.555,4.883,-23.438
7.324,62.012,18.066,5.859,-21.484
4.395,62.5,19.531,5.859,16.113
2.441,57.129,20.02,3.418,4.395
1.953,52.734,20.996,2.93,-19.043
3.418,53.223,21.484,3.418,12.207
5.859,54.199,19.043,-2.441,37.109
9.277,56.152,19.531,0,43.945
10.742,52.734,19.043,5.371,-31.738
10.742,54.688,21.973,6.836,-21.973
4.395,54.688,23.926,7.324,98.633
6.348,51.27,18.555,6.348,83.984
11.719,49.316,18.555,6.836,-28.32
4.883,47.363,22.461,6.836,16.113
4.883,46.875,21.484,7.812,71.777
8.301,47.852,20.02,9.766,71.777
7.324,53.223,22.461,8.301,89.355
8.301,55.664,22.461,6.348,95.215
9.277,51.27,18.555,9.277,62.5
9.277,48.34,18.066,8.301,41.504
12.695,47.363,20.996,8.789,47.363
5.859,47.363,23.438,10.254,39.062
1.953,48.828,22.461,8.789,51.758
9.766,45.898,23.438,12.695,70.312
11.719,42.48,25.391,16.113,23.438
15.137,43.457,25.879,15.625,-59.57
14.648,47.363,25.879,14.16,-5.371
8.789,49.316,24.414,10.254,32.715
8.301,45.898,24.414,12.695,14.16
5.859,44.434,23.438,12.207,7.324
8.789,47.363,22.949,6.836,62.988
11.23,48.828,22.461,7.324,23.438
7.324,47.852,21.973,10.254,-44.922
8.301,45.41,23.926,12.207,5.371
11.719,44.434,24.414,9.277,15.625
10.254,41.992,22.949,6.836,-32.715
7.812,41.992,20.996,7.324,-28.32
8.301,45.898,20.508,6.836,16.113
7.812,45.41,24.414,6.836,31.25
6.348,44.434,23.926,3.418,32.227
7.324,41.504,19.531,1.953,15.625
12.207,41.016,19.531,5.859,-34.668
12.207,42.48,21.973,10.254,-26.367
10.742,40.527,22.461,11.23,3.906
11.23,40.527,23.438,16.602,-14.16
15.625,41.504,26.855,17.09,11.719
17.578,41.504,28.32,11.719,76.66
21.973,44.922,27.344,12.207,35.645
19.531,42.969,27.832,8.301,29.785
16.113,38.574,29.297,1.953,75.684
21.484,39.062,30.273,6.836,54.688
23.438,36.621,27.832,16.602,30.273
19.531,36.133,24.414,19.043,4.883
14.16,35.645,23.926,18.555,-48.828
11.23,32.715,26.367,24.902,-76.172
6.836,32.227,28.809,27.344,-8.301
-1.465,32.715,32.227,26.855,33.691
-6.836,29.297,29.785,22.949,83.984
-5.371,26.367,25.879,16.113,83.984
-3.906,29.785,28.32,13.672,41.504
0,32.227,28.809,12.695,14.648
1.465,30.273,31.25,9.766,-11.719
-0.488,32.715,30.273,10.254,-13.184
0.977,31.738,26.855,9.766,20.996
0.977,26.855,28.32,10.742,41.504
0,28.32,26.367,11.719,32.715
-4.883,30.762,24.902,7.812,18.066
-8.301,31.25,24.414,11.23,16.113
-8.789,29.297,25.879,13.184,33.203
-5.371,27.832,27.832,12.207,19.043
0.977,32.715,28.32,18.555,53.711
-0.977,34.18,28.809,18.066,56.641
-1.465,33.203,22.949,10.254,-2.93
3.418,34.668,23.438,12.207,17.578
1.465,31.738,25.879,12.207,27.832
1.465,27.344,21.484,6.836,1.465
2.441,25.879,20.02,7.812,-5.859
1.953,25.391,20.508,14.16,5.371
9.277,25.391,21.484,16.602,20.02
10.254,24.902,20.996,13.184,-18.066
1.465,24.414,21.973,12.695,-7.324
2.93,29.297,22.461,9.766,29.785
5.859,30.273,20.996,10.742,43.945
6.348,26.367,20.02,10.742,1.465
10.254,26.855,23.438,9.277,-29.297
7.324,29.785,24.902,7.812,-39.062
0.977,29.297,23.438,6.836,4.395
3.906,27.344,20.996,9.277,15.625
2.441,28.809,21.973,8.789,29.785
-1.953,31.738,24.902,11.23,42.48
5.371,35.156,27.344,11.719,12.207
9.766,35.645,28.32,6.348,15.625
3.906,35.645,27.832,5.859,29.785
2.93,35.156,23.926,6.836,30.762
4.395,33.203,23.926,4.883,-1.953
5.859,32.715,23.438,2.93,-29.785
6.836,33.691,22.949,3.418,31.738
4.395,33.203,26.367,7.812,73.73
1.465,31.738,28.809,9.277,62.012
1.953,33.203,27.832,7.812,17.578
4.395,33.691,25.391,11.23,-40.039
2.441,31.738,26.367,9.766,0.488
1.465,32.715,28.32,7.324,-4.883
6.348,34.668,30.762,12.207,-1.953
8.789,34.668,30.273,10.254,36.621
6.836,33.203,29.785,5.371,31.738
8.789,34.18,29.297,6.836,27.832
13.184,32.715,32.227,9.277,-22.949
16.113,33.691,33.203,12.695,-17.09
20.996,36.133,33.691,16.113,64.941
22.949,36.133,35.156,14.16,98.145
19.043,35.156,33.203,13.184,82.52
16.602,33.691,33.691,11.719,73.73
18.555,34.18,30.273,13.184,16.602
20.508,37.109,26.367,15.137,-30.762
20.02,34.668,27.344,18.066,-24.902
24.902,31.738,27.832,23.438,6.836
25.879,37.598,33.691,16.602,83.984
13.672,41.504,31.25,8.301,18.066
4.883,41.992,20.02,0,-26.855
3.418,41.016,20.02,-7.324,29.785
0,41.016,23.926,-7.324,1.465
-6.836,42.48,23.926,-11.719,-0.488
-9.277,44.922,20.02,-11.23,12.695
-6.836,45.41,20.508,-6.836,36.133
-6.836,47.852,20.996,-9.277,-1.953
-10.742,49.805,16.602,-10.254,-15.625
-6.836,46.387,16.113,-3.418,32.227
-6.836,47.852,16.602,0.488,27.344
-8.301,50.293,16.602,-7.812,39.062
-8.789,47.852,17.09,-8.789,75.195
-7.324,45.41,16.113,-4.395,66.406
-6.836,48.34,18.555,-7.324,-4.395
-6.836,47.852,19.043,-4.395,-33.203
-5.859,43.457,16.602,0.977,-19.531
-6.348,44.922,18.066,-0.977,24.414
-7.812,44.922,17.578,-6.836,43.457
-7.812,43.457,14.648,-6.348,-3.418
-9.277,44.434,14.648,-5.859,3.418
-10.742,45.898,14.648,-8.301,34.668
-11.719,42.48,12.695,-10.254,38.574
-10.254,37.598,15.137,-11.23,35.156
-6.348,40.039,18.066,-8.301,32.227
-7.812,38.086,17.09,-8.789,8.301
-7.812,34.18,17.578,-9.766,48.828
-6.836,33.691,20.508,-4.883,81.055
-7.324,34.668,20.508,-4.883,-7.812
-6.348,31.738,17.09,-5.859,21.973
-1.953,31.25,18.066,-1.465,109.375
0.977,34.668,17.09,5.859,65.43
-2.441,33.203,18.066,7.324,34.668
0,35.645,21.973,9.277,39.062
8.789,38.574,20.508,13.672,94.238
9.766,35.645,18.066,6.836,65.43
8.789,34.668,14.648,4.395,12.207
2.93,35.645,13.184,5.859,30.762
0.977,35.645,17.09,3.906,37.598
3.906,34.18,18.555,3.418,41.504
6.348,34.18,18.555,6.836,49.805
11.23,36.621,19.043,11.719,30.762
11.719,36.133,18.555,11.719,-15.137
11.23,32.715,18.066,10.254,-7.812
11.719,31.25,15.625,7.324,0
12.695,28.32,16.602,10.254,48.828
6.836,29.297,18.066,7.812,69.824
-0.488,32.715,20.508,1.465,55.176
2.441,32.715,22.949,2.441,18.066
5.859,30.273,22.461,0.977,-27.832
2.441,32.715,20.996,-1.465,16.602
8.789,35.645,20.996,2.441,-10.742
10.254,34.668,19.531,7.324,25.879
2.441,33.691,19.531,6.836,33.203
2.93,31.25,20.02,3.418,-29.785
5.371,32.227,18.555,0,5.859
5.859,33.691,19.043,-1.953,61.035
1.465,33.691,18.555,3.906,63.477
2.93,33.203,20.508,6.348,41.504
5.371,32.227,20.996,6.836,64.941
1.465,33.691,20.02,8.301,51.27
0.977,32.227,20.02,2.93,-0.977
6.348,30.762,13.672,0.977,47.852
14.16,31.25,11.719,9.277,49.316
8.789,25.879,20.508,7.812,-4.883
-11.23,19.043,27.344,-2.441,-1.465
-18.066,20.02,29.785,-2.93,41.016
-19.531,20.996,32.227,-5.859,41.016
-17.578,19.531,33.203,-8.789,47.363
-12.207,19.531,34.18,-0.488,13.184
-13.672,18.555,37.598,0,14.648
-17.09,17.09,38.086,-4.395,46.387
-20.02,15.137,34.18,-7.324,6.836
-17.578,13.672,36.133,-6.836,-43.457
-13.672,14.16,40.527,-3.418,-83.984
-14.648,15.625,35.645,-6.348,26.367
-12.695,18.555,32.227,-4.395,82.52
-13.672,20.996,28.809,0.977,64.941
-12.695,18.066,29.297,0.488,41.016
-10.742,17.09,29.297,-2.441,-7.324
-14.16,17.09,29.297,1.953,-7.324
-13.184,16.113,30.273,6.348,-52.246
-7.324,17.09,30.273,7.324,-66.895
-4.395,18.066,32.227,10.254,-36.133
-1.953,20.02,33.203,13.672,2.441
0.977,18.066,33.691,17.578,22.461
1.465,18.066,32.227,17.09,30.762
-1.465,19.531,32.227,21.973,-2.93
1.465,18.066,31.738,24.414,-18.555
2.93,20.508,27.344,20.508,9.277
4.883,21.484,25.879,21.973,-24.414
5.859,22.461,30.273,21.484,8.301
10.742,25.391,30.762,22.949,31.738
14.16,28.32,28.809,24.902,7.324
9.277,27.832,29.297,22.949,44.434
7.324,23.926,30.273,19.531,8.301
2.93,22.461,28.809,11.719,-8.301
1.953,21.484,26.855,11.23,40.039
10.742,23.926,24.902,12.207,1.953
13.672,23.926,24.902,8.301,-9.766
12.695,25.391,23.438,9.766,63.965
12.695,24.902,18.555,6.836,9.277
11.719,23.438,18.066,5.859,4.883
10.742,26.367,17.578,11.23,58.594
8.301,27.344,17.09,7.812,52.734
9.766,24.414,15.137,3.906,38.574
8.301,21.973,17.09,4.883,25.391
5.859,22.461,22.461,7.812,50.781
8.789,24.902,21.484,6.348,55.664
8.301,26.367,21.973,1.953,-0.488
3.906,27.344,22.949,1.953,-8.789
-0.488,26.367,22.949,4.883,1.953
-1.465,24.414,21.484,-0.488,13.184
-2.93,25.391,19.043,-6.348,33.691
-5.859,25.391,20.508,-3.418,27.832
-1.953,25.879,21.484,0,45.41
2.93,28.32,20.02,1.465,15.625
1.953,26.855,20.508,4.883,2.441
-0.488,25.879,22.461,3.418,1.953
-6.836,25.879,22.461,-0.977,-41.504
-3.906,22.949,21.973,1.953,-61.035
3.418,22.949,23.438,3.906,-54.688
-0.977,24.902,25.879,3.418,11.719
0,27.832,24.902,5.859,-14.16
3.418,28.809,26.855,4.395,6.836
6.836,27.832,30.273,5.859,32.227
7.812,27.344,27.344,8.301,-19.531
4.395,29.785,24.414,4.395,34.668
9.766,30.762,26.367,7.324,49.316
9.766,30.273,25.879,11.23,26.367
6.836,29.785,25.879,6.348,90.82
9.277,31.25,26.367,8.789,62.988
9.766,31.25,28.32,11.719,20.02
8.789,28.809,28.32,11.23,99.121
7.812,29.785,25.879,13.184,39.062
6.348,28.32,26.367,14.648,3.418
5.859,23.926,27.344,17.09,30.273
7.812,25.391,27.344,19.531,19.531
14.648,29.785,27.344,23.926,56.152
15.137,28.809,26.855,26.855,56.152
9.277,26.855,25.391,21.484,51.27
11.719,24.902,24.414,16.602,44.434
16.113,24.902,27.344,17.578,44.434
14.648,26.855,26.367,16.602,65.43
11.23,26.367,26.367,16.602,63.477
5.371,22.949,26.367,12.207,3.418
4.395,20.02,26.855,8.301,-30.762
6.348,20.508,28.32,10.742,-10.254
1.465,20.508,25.391,9.277,47.363
-1.465,20.508,19.531,6.836,30.273
0.977,21.484,22.461,10.254,46.387
4.395,21.484,27.832,15.137,96.68
1.953,23.438,25.879,12.207,22.461
4.395,23.926,21.484,8.301,17.578
7.812,20.02,20.996,11.23,25.879
5.859,17.578,24.414,13.672,7.324
9.277,16.602,26.855,14.16,21.484
12.695,16.113,28.32,12.695,79.59
8.301,15.625,27.832,10.742,31.25
8.301,13.672,25.879,8.301,-48.34
10.254,15.137,27.344,8.789,31.738
9.766,15.625,26.855,11.23,71.289
7.324,12.207,24.414,9.766,83.008
4.883,12.207,23.926,8.301,23.438
1.465,10.742,21.973,3.418,-37.109
5.371,10.254,24.414,6.836,40.039
7.812,10.742,25.391,9.277,23.438
9.277,11.23,25.879,6.836,-34.668
14.16,10.742,32.227,13.672,-13.672
13.672,6.348,29.785,14.648,-20.996
8.789,5.371,26.855,10.742,10.742
10.742,7.324,26.855,15.625,26.855
18.066,7.324,26.855,19.043,28.32
20.996,7.812,29.785,20.996,35.645
18.066,9.277,27.832,18.555,25.879
16.113,10.742,25.879,13.672,48.828
13.672,10.742,27.832,16.602,40.039
10.742,13.672,26.855,18.066,65.43
11.23,17.09,23.438,14.648,59.082
7.812,15.137,21.973,14.16,-19.531
3.906,16.602,24.414,12.207,-7.324
-1.953,19.043,26.855,5.859,22.461
-0.977,16.602,23.926,3.906,10.254
2.93,14.648,22.461,5.859,-16.113
1.465,14.16,24.414,7.324,-15.625
3.418,18.066,23.926,10.742,-30.273
10.742,20.508,26.855,9.766,-37.598
11.719,20.02,28.809,6.348,7.812
8.301,20.508,29.297,9.766,49.316
7.812,21.484,28.32,12.695,27.832
3.906,21.973,29.785,11.23,26.855
6.348,22.461,29.785,10.742,46.387
7.324,23.438,26.367,12.207,7.324
10.742,25.391,24.902,12.207,11.719
9.277,26.855,26.367,7.324,5.371
7.812,26.367,23.926,9.766,-9.766
9.277,26.855,22.949,12.695,-14.648
11.23,31.738,26.855,13.672,-36.133
11.719,31.25,24.414,15.137,-35.645
1.465,25.391,20.996,11.719,-10.254
1.465,23.926,20.996,11.23,13.184
6.348,25.879,22.461,10.254,38.574
0.977,25.391,20.996,9.277,18.066
-0.488,23.438,23.926,10.254,27.344
1.465,24.414,23.438,5.859,15.137
3.418,26.855,19.531,3.418,-0.977
7.324,28.32,21.973,8.301,1.953
10.742,26.855,24.902,10.254,14.648
10.742,26.855,25.391,11.719,25.391
7.812,26.855,23.926,10.742,15.625
9.766,28.32,23.926,10.254,1.953
14.16,29.297,23.438,13.184,21.484
16.602,28.809,23.438,10.742,69.824
22.461,30.762,23.926,15.137,94.238
26.367,30.762,23.926,16.113,68.848
22.461,29.785,22.949,9.766,28.809
17.578,28.809,21.973,9.277,22.461
19.043,25.391,22.461,13.184,12.695
15.625,25.879,20.996,11.719,-45.898
8.301,27.344,21.973,10.742,-28.32
9.766,29.297,22.949,15.137,-15.625
8.789,30.762,22.949,17.09,-49.805
3.418,30.273,21.973,19.531,-23.438
0.488,27.832,20.996,12.207,40.039
2.93,25.391,21.484,12.207,38.574
8.301,27.344,22.949,18.066,-40.039
12.207,28.809,23.926,14.648,12.207
7.812,29.297,23.438,12.207,58.105
10.742,29.297,25.879,15.137,-22.949
13.184,28.32,28.809,19.043,15.137
12.207,28.809,28.32,23.926,58.594
11.23,27.344,27.344,25.391,-3.906
13.672,24.414,29.297,17.09,-10.742
20.508,29.297,30.273,14.16,20.508
15.625,31.25,24.902,17.578,16.113
10.742,25.391,22.461,15.625,4.883
7.324,24.414,26.855,17.09,28.32
7.324,24.414,27.344,17.09,4.883
5.371,22.461,23.438,11.23,44.922
5.371,22.461,24.902,9.277,67.383
9.766,23.438,30.273,16.113,58.594
8.301,24.414,26.367,18.555,83.496
6.348,24.414,22.949,12.207,80.566
11.719,24.414,24.902,8.301,73.73
14.16,23.926,26.855,9.277,48.828
11.23,23.438,29.297,11.23,81.055
11.719,22.949,28.32,11.23,61.523
11.719,23.438,28.32,10.742,75.684
11.23,26.367,28.809,14.648,110.84
13.672,27.832,28.809,17.578,46.875
12.695,25.879,27.832,14.648,49.316
9.277,26.855,27.344,11.719,59.082
7.324,29.297,25.879,8.789,-16.113
8.301,26.367,26.855,10.254,2.441
8.789,25.879,30.762,15.137,10.742
7.324,28.32,30.273,14.16,25.879
7.812,36.133,24.414,10.254,25.391
6.836,44.922,22.461,9.277,15.137
3.906,44.922,26.367,6.348,74.707
4.883,41.992,27.832,9.766,68.359
5.859,39.062,25.879,8.301,-0.977
3.906,36.133,22.461,3.418,18.066
5.371,35.156,21.973,5.371,53.711
8.789,35.645,25.391,6.348,38.574
7.324,34.18,23.926,7.324,24.414
3.906,32.715,20.02,7.324,-12.207
3.418,30.762,22.949,7.324,-44.434
9.277,28.32,25.879,8.301,-10.254
10.254,30.273,24.414,10.742,23.438
6.348,29.785,25.879,11.719,-30.762
6.348,26.855,29.297,10.742,-47.363
10.254,30.762,30.273,12.695,-23.438
11.23,33.203,29.785,15.137,29.297
12.207,32.715,28.32,12.695,1.953
13.184,32.715,29.297,9.277,-17.578
9.766,33.691,29.785,10.254,20.508
9.277,30.762,26.367,9.277,46.875
8.301,29.785,25.391,6.348,55.176
6.348,27.832,27.832,3.418,19.531
5.859,27.832,27.832,4.395,-2.441
5.371,29.785,28.32,8.301,20.996
7.812,28.32,28.32,6.348,19.531
11.719,29.785,26.855,7.812,16.602
13.184,32.227,28.32,10.742,23.926
12.695,29.785,24.902,12.207,43.945
11.719,27.832,21.973,13.184,22.949
8.301,27.832,23.438,11.23,8.789
5.371,27.344,24.414,16.113,46.387
6.348,28.32,23.438,16.602,23.926
9.277,31.25,23.926,12.207,10.742
11.23,33.203,22.461,10.742,-0.977
11.23,33.691,22.461,12.695,-23.926
10.254,35.156,24.414,15.137,25.879
14.16,38.086,24.902,13.672,-0.977
18.066,38.574,25.879,12.695,-38.574
18.066,38.086,25.879,12.695,25.879
13.184,37.598,27.832,12.695,27.832
9.277,37.598,29.785,17.09,31.738
8.789,34.18,26.855,16.113,48.34
11.719,34.668,24.902,13.672,46.387
16.602,37.598,26.855,18.066,4.883
17.578,36.621,28.32,19.043,-38.086
12.695,33.691,28.809,16.113,87.402
8.789,32.715,27.832,14.16,62.5
9.277,32.715,30.762,14.648,-62.012
6.836,31.738,33.691,11.719,-52.246
7.324,30.273,30.273,11.23,41.016
7.324,28.32,28.809,12.695,35.645
1.953,26.855,27.832,7.324,-17.09
0.977,27.344,28.809,6.836,-1.465
5.859,28.32,29.785,10.254,18.555
8.789,28.32,28.32,6.348,53.711
5.371,28.809,28.809,5.859,46.387
7.324,29.297,26.855,7.324,16.602
7.812,29.297,28.809,7.812,33.691
2.93,27.344,28.32,9.766,27.832
-0.488,28.809,24.902,5.371,7.324
0,30.273,29.785,6.836,35.156
0,31.25,28.809,6.348,13.184
-1.465,30.762,24.414,6.348,9.277
1.465,25.879,24.902,9.766,41.992
3.418,28.809,22.461,5.371,26.855
3.906,32.227,20.996,4.883,-16.113
8.301,32.715,23.926,5.371,49.805
12.695,32.715,25.879,8.789,58.105
15.625,29.785,28.809,11.23,11.719
14.648,28.809,29.785,9.277,43.457
9.277,27.344,22.461,6.836,7.812
5.859,24.902,20.508,6.836,-1.953
11.23,26.367,22.461,10.254,67.871
12.695,27.832,20.996,8.789,27.344
9.277,25.391,18.066,7.324,12.207
9.277,25.879,18.555,10.742,18.066
6.348,27.832,18.066,8.789,18.066
4.883,29.297,19.043,2.93,12.695
3.418,32.715,24.414,6.836,-13.672
5.859,35.156,23.438,9.277,7.324
4.395,34.668,22.949,6.836,89.844
3.906,32.227,22.461,9.766,3.906
2.93,34.18,22.949,8.301,-48.34
-2.441,34.18,22.949,5.859,39.062
-6.348,32.227,25.391,7.812,-9.277
-4.883,31.25,31.25,8.789,-12.207
3.418,32.715,31.738,13.184,49.316
7.812,35.645,29.785,16.113,-16.602
8.301,38.574,30.273,14.648,-13.184
15.137,39.551,30.762,14.648,60.059
20.996,37.109,34.18,17.09,36.621
21.484,36.621,33.691,20.508,-23.438
19.531,39.062,32.715,18.066,24.902
16.113,41.016,35.156,13.672,85.449
19.531,38.574,36.133,16.602,81.055
21.484,35.156,34.18,20.996,64.941
18.555,35.645,31.738,20.02,11.719
12.695,34.18,32.715,20.02,52.734
12.695,34.18,33.691,18.555,56.641
18.066,35.156,33.203,15.137,-4.883
20.02,35.645,37.109,17.09,-0.488
12.695,36.621,37.598,16.602,26.855
3.906,32.715,37.109,13.672,46.875
5.859,31.25,39.551,11.719,23.438
8.789,33.203,38.086,10.254,11.719
6.348,29.297,37.109,10.254,-4.883
2.93,27.344,34.18,7.812,28.809
0.977,30.762,33.203,9.277,31.738
-6.348,32.227,30.273,3.418,35.645
-9.766,29.785,27.832,-4.395,50.293
-5.859,30.762,27.344,0,34.18
-3.906,34.668,24.902,3.418,39.062
-5.371,33.691,22.461,0.977,41.992
-5.859,32.715,25.391,0.488,68.848
2.441,33.203,25.879,7.324,56.152
13.184,31.25,23.438,16.113,0.488
14.16,31.25,24.902,16.113,37.598
12.207,33.203,23.438,11.719,73.242
14.16,34.18,20.996,15.625,24.414
13.672,33.203,22.949,18.066,-2.93
12.207,32.227,25.391,16.113,14.648
15.137,31.25,25.391,16.113,54.199
15.625,32.227,23.438,14.648,53.223
12.695,30.762,24.414,10.254,7.812
14.16,31.738,24.414,11.23,-24.902
16.113,32.227,20.508,9.766,19.531
12.695,28.32,20.508,9.766,6.836
11.719,28.809,20.508,10.254,75.195
9.766,30.273,20.508,6.348,99.609
10.254,29.785,24.902,7.324,-1.953
9.277,28.32,26.855,8.789,33.203
3.418,29.785,25.879,7.812,71.777
1.465,31.738,24.414,8.301,50.293
-2.93,29.297,21.973,11.23,23.438
-5.371,25.391,25.391,8.301,-7.812
-7.812,24.902,25.391,2.441,20.02
-7.324,24.902,20.508,-1.953,25.391
-10.254,25.879,19.531,-6.836,56.641
-16.602,30.273,17.09,-5.859,6.348
-14.648,30.273,19.531,-5.371,-45.898
-9.277,24.902,24.902,-4.883,-12.207
-8.789,26.367,25.879,-2.441,38.574
-6.836,29.297,24.902,0.488,32.227
-2.441,29.785,20.996,4.883,-1.465
0,30.762,19.531,4.883,-14.648
8.301,31.25,15.625,3.906,-58.105
15.625,29.785,16.602,7.812,17.09
16.602,30.762,19.531,15.137,58.105
22.461,33.691,18.555,17.09,61.523
23.926,35.645,20.508,13.672,21.973
18.066,32.715,22.949,16.113,-11.719
12.695,32.227,22.461,17.578,40.039
9.277,33.691,22.461,13.184,-38.574
11.23,34.668,22.461,12.695,-66.406
11.719,33.691,21.484,9.277,22.949
9.277,28.809,25.391,10.254,78.125
9.277,29.297,28.32,13.184,34.668
9.277,30.273,27.832,10.742,13.672
6.836,27.344,25.879,11.719,17.09
5.859,27.344,23.926,11.719,12.695
10.254,27.344,22.461,9.277,31.738
4.883,24.414,20.996,7.812,12.695
-8.789,24.414,18.555,0.488,9.277
-13.184,28.32,20.996,-0.488,28.32
-8.301,29.297,25.391,1.465,24.902
-12.695,27.832,25.391,-0.977,60.059
-15.625,29.297,24.414,-6.348,106.445
-11.719,31.25,26.855,-6.348,43.457
-9.277,32.715,28.809,6.836,-12.207
-10.254,28.809,27.344,5.371,9.277
-9.277,24.902,26.367,-5.371,48.34
-10.742,25.879,28.32,0,-26.855
-7.324,25.879,30.762,9.766,-33.203
3.418,26.367,30.273,16.602,14.16
6.836,27.832,29.297,20.02,23.926
16.113,29.297,34.18,22.461,-24.902
20.996,29.785,36.133,24.902,-99.609
20.996,32.227,32.715,27.344,-54.688
22.949,32.227,28.809,25.391,-21.484
17.09,27.344,29.785,24.414,19.043
20.02,30.762,35.156,32.227,48.34
24.902,33.203,34.668,35.645,64.941
11.23,28.809,32.715,31.25,47.363
7.324,28.32,35.156,31.25,23.438
12.695,29.297,36.133,31.25,31.25
12.207,30.273,32.715,22.949,34.18
12.695,30.273,32.715,20.996,14.648
11.719,29.785,35.645,27.344,13.184
5.859,31.738,31.25,19.531,26.367
0.488,30.273,27.832,9.277,49.805
0.977,30.273,28.809,10.742,55.176
-3.418,29.297,25.391,8.301,11.23
0.977,25.879,27.344,8.789,8.301
-0.977,28.32,27.344,6.348,42.969
-14.16,32.715,20.996,-6.836,37.598
-14.16,32.715,20.996,-11.719,-19.043
-17.09,31.25,22.461,-9.766,17.578
-20.508,35.645,20.508,-14.16,28.809
-13.184,40.039,22.461,-13.184,0.488
-8.789,41.504,22.949,-11.719,40.039
-11.719,42.48,16.602,-14.16,53.223
-11.23,42.969,13.672,-10.742,79.102
-7.324,41.992,13.184,-3.418,51.758
-4.395,38.574,15.137,0,41.016
8.301,40.039,17.09,0.488,33.691
24.902,43.945,19.531,15.625,-29.297
22.949,44.434,19.531,21.973,8.301
21.484,43.457,20.508,19.043,28.32
21.484,43.945,19.531,20.996,-34.668
18.066,44.434,18.555,21.484,33.203
7.812,41.016,18.066,3.418,85.938
-2.441,35.156,15.137,-11.719,109.375
10.742,37.109,18.066,3.906,93.75
11.23,41.992,20.996,12.207,6.348
-0.488,38.574,22.461,3.906,50.293
-2.93,35.645,22.461,-5.371,91.309
7.812,39.062,23.926,-3.418,-3.418
15.625,42.969,24.414,4.883,-20.02
2.441,41.016,21.973,0,42.969
-3.418,40.527,22.461,-8.301,9.277
2.441,40.527,20.996,-3.418,0
9.277,37.598,19.531,0.977,12.695
13.672,39.062,20.02,0.977,-45.898
5.371,40.527,19.531,4.883,-10.742
11.23,39.062,21.484,7.812,30.273
12.695,39.551,22.461,5.371,-48.828
3.418,36.621,23.926,6.836,-58.105
4.395,34.18,25.879,6.348,15.137
18.066,34.18,24.902,7.812,40.039
25.879,35.645,22.461,11.23,3.906
21.484,34.668,20.02,19.043,-9.766
20.02,33.203,21.484,22.461,40.527
23.438,31.738,20.996,15.137,44.922
28.809,26.855,19.043,24.414,10.742
26.855,30.273,23.438,26.367,20.996
26.367,34.668,22.461,21.484,13.672
25.879,31.738,17.09,19.043,30.762
25.879,31.738,16.602,12.695,29.785
31.25,31.738,19.531,11.23,12.695
34.668,29.297,18.555,12.207,-20.02
40.039,33.203,19.043,21.973,-25.879
30.762,31.738,19.531,24.414,44.922
18.555,27.344,16.113,16.113,8.789
25.879,27.832,15.137,17.09,-2.441
20.508,28.32,12.695,21.484,12.207
9.277,26.367,10.254,14.16,-6.348
0.977,25.879,15.137,7.324,34.18
-8.789,28.32,21.973,6.348,15.137
-9.277,32.227,24.414,-2.93,8.789
-5.371,31.738,22.461,-5.859,-2.441
-5.371,27.832,20.996,1.953,-3.418
0,27.832,21.973,2.93,41.016
0.488,26.855,20.02,2.441,4.395
-2.93,24.902,22.461,6.836,14.648
0.977,23.438,23.926,0.977,35.645
0.488,21.973,22.461,-5.859,21.484
0.977,19.531,22.949,8.789,0.977
7.812,19.043,26.855,15.137,-9.766
22.949,24.414,28.32,19.531,31.25
26.855,25.391,26.855,25.879,27.832
25.879,25.391,28.809,32.227,37.109
30.273,28.809,26.367,38.574,44.434
32.227,30.273,23.926,35.156,7.812
32.227,26.855,22.949,26.855,24.902
34.18,23.438,26.367,29.297,38.086
35.156,24.902,24.902,38.086,45.898
31.25,31.25,18.555,30.273,5.371
37.109,34.18,19.043,18.066,5.371
38.086,33.691,19.043,6.836,66.406
29.297,37.109,18.066,0.488,66.895
16.602,36.621,18.555,-1.953,13.184
17.09,34.18,16.113,-4.395,37.109
20.996,35.645,15.625,-5.371,67.383
20.02,38.574,16.113,-3.418,52.246
19.043,40.527,13.184,0.977,19.531
13.184,39.551,13.184,-4.395,9.277
3.418,39.551,14.648,-6.836,48.34
-1.465,37.598,13.184,-7.812,41.992
-8.301,35.156,16.602,-9.766,59.082
-14.648,32.715,22.949,-13.184,33.203
-16.113,33.203,21.484,-12.207,-5.371
-19.531,32.227,21.973,-13.672,0
-20.02,30.273,25.391,-12.207,8.789
-19.043,33.691,25.879,-9.766,52.734
-17.09,36.621,23.438,-11.23,41.992
-12.695,34.18,23.926,-4.395,8.789
-1.953,31.25,23.926,-6.836,52.734
2.441,33.691,20.996,-8.301,68.848
5.859,35.645,23.926,0,28.809
18.555,33.203,24.902,3.906,-5.859
27.832,33.691,24.414,6.348,-56.641
32.715,36.133,24.902,12.207,-54.199
30.762,32.227,22.949,5.371,-2.441
28.32,30.273,27.344,8.301,21.973
26.855,31.738,29.297,14.16,48.828
25.879,29.297,25.879,11.719,47.852
27.832,29.297,22.949,18.555,14.648
20.508,31.738,22.461,22.461,34.668
6.836,36.133,22.949,19.043,20.996
19.531,33.691,23.438,25.391,6.836
28.32,30.273,25.391,31.25,29.785
17.578,34.18,24.414,20.02,-38.086
0.488,31.25,25.879,13.184,-23.926
-4.883,31.738,26.855,20.996,11.23
4.883,29.297,25.879,24.414,33.203
1.465,23.926,25.391,14.648,42.969
-4.395,25.879,20.02,11.23,14.16
-6.348,26.855,20.02,9.766,-25.879
-6.836,25.391,25.879,8.301,6.348
-7.812,24.414,23.926,7.812,-3.418
-3.418,23.438,24.902,4.883,-45.41
2.441,23.438,28.32,4.395,23.926
5.371,27.344,23.926,2.93,49.316
3.418,30.762,20.02,-0.488,54.688
12.695,33.691,20.508,5.371,78.613
21.484,34.18,16.602,4.395,60.547
18.555,32.715,12.207,0.977,44.434
17.578,36.621,11.23,8.301,49.316
17.09,37.598,12.695,7.324,-18.066
19.531,36.133,14.16,8.789,16.113
22.949,38.086,13.672,14.16,82.52
20.02,38.086,12.207,19.043,69.824
20.508,36.133,14.16,20.02,70.312
37.598,36.133,16.602,25.391,35.156
36.621,35.645,15.625,33.203,25.391
23.438,33.691,20.508,35.156,5.859
24.902,33.203,23.926,31.738,-4.883
19.043,32.227,26.855,29.297,52.246
13.672,32.715,27.832,29.297,19.531
20.508,33.203,27.832,30.762,-42.969
19.531,34.18,31.25,29.297,-20.508
13.184,29.785,29.785,21.973,-59.57
7.812,27.344,24.414,21.973,-47.363
1.465,28.809,25.391,19.531,-15.137
5.859,24.414,29.297,19.531,0
9.277,25.391,27.344,20.508,32.715
3.418,29.785,27.832,16.602,-26.855
8.789,30.273,32.227,18.555,-17.09
7.324,31.25,34.18,16.113,48.34
0.488,30.273,31.25,10.742,-12.695
4.395,29.297,29.785,11.719,7.812
12.695,33.203,29.297,18.066,70.801
14.648,36.621,28.32,20.508,83.496
12.207,36.133,28.32,18.066,95.215
10.742,35.156,25.391,15.137,33.691
13.184,36.133,26.367,11.23,14.16
17.578,37.109,31.25,18.555,62.5
13.184,40.039,31.25,18.066,76.66
19.043,35.156,30.273,18.066,18.066
23.926,27.832,30.762,23.926,-28.809
21.484,26.855,31.738,22.461,0.488
29.785,28.32,31.738,22.949,17.09
36.621,29.785,30.273,23.438,8.301
28.32,29.297,27.832,20.996,23.438
21.973,32.227,25.391,13.672,2.93
19.531,32.227,24.414,14.648,-27.832
20.996,28.809,23.438,17.578,14.648
25.391,28.809,26.855,20.508,2.93
20.508,34.18,25.879,20.02,10.742
16.113,33.203,25.391,20.996,34.668
11.719,28.32,26.855,13.672,-11.23
8.789,28.32,24.414,8.789,-25.879
6.836,30.273,27.832,11.719,-4.395
-1.465,28.809,31.25,8.789,-4.883
-5.371,27.832,27.344,4.883,56.152
-5.371,28.32,27.832,4.883,25.879
-9.277,27.344,32.227,4.395,31.738
-5.859,28.809,31.738,2.93,86.426
-4.395,29.785,29.785,2.441,80.078
-1.953,29.785,28.809,6.836,56.152
5.371,34.18,31.25,10.742,45.898
9.766,33.691,29.297,13.184,40.039
12.695,28.809,24.902,18.066,4.395
12.695,33.203,24.414,19.531,-1.465
13.672,35.156,23.438,14.648,-5.859
16.602,30.762,22.461,14.16,-7.812
16.602,29.785,20.996,16.113,32.227
16.602,29.297,21.484,16.113,22.949
18.555,30.273,20.996,18.555,13.184
14.648,33.691,22.949,14.648,-30.762
14.16,33.691,28.809,12.207,-16.602
19.531,34.668,27.832,16.602,28.32
15.625,31.738,27.832,22.461,-1.953
14.16,29.785,30.273,27.344,-26.367
16.113,31.738,24.414,21.973,-33.203
10.254,35.156,20.02,11.23,6.348
6.836,33.691,22.461,11.719,40.527
5.371,30.273,23.438,12.695,37.109
6.348,32.715,18.555,8.789,25.391
0,32.715,14.648,4.883,0.488
-5.371,32.227,17.09,-2.93,-23.438
-7.324,30.762,18.066,-6.348,17.578
-11.719,28.32,17.09,-7.812,14.16
-12.695,31.25,18.066,-9.277,-32.227
-13.672,31.738,17.578,-10.742,-27.344
-13.672,24.902,19.043,-13.184,-29.297
-12.207,25.391,21.973,-8.789,8.301
-11.23,28.809,25.391,-6.348,97.168
-7.324,28.809,23.438,-3.418,105.957
-1.953,31.25,22.949,0.977,87.402
1.465,34.668,22.949,0,69.336
11.23,35.156,24.414,5.859,26.855
11.23,35.645,24.414,13.672,58.594
10.254,34.18,20.02,17.09,70.801
12.695,32.715,20.02,14.16,61.035
8.301,31.738,22.461,14.648,71.777
15.625,29.785,23.438,18.555,59.57
18.555,33.203,22.461,20.02,66.406
9.277,35.156,19.043,13.184,65.43
7.812,35.156,18.066,8.301,37.598
8.789,36.621,22.461,12.695,19.043
0,37.109,25.879,7.324,-21.484
-3.418,35.156,23.438,0,-20.508
-0.977,31.738,24.902,0,-13.672
-3.418,33.203,23.438,-0.488,-29.785
-9.766,35.645,21.484,-3.906,16.602
-13.672,34.668,22.461,-7.324,96.68
-8.301,34.18,23.926,-5.371,87.402
-2.93,32.715,22.949,-4.883,15.137
-8.301,31.738,21.484,-6.348,-14.648
-9.766,33.203,22.949,-5.371,28.809
-7.324,31.738,20.996,-9.766,33.691
-12.695,28.809,18.066,-10.254,51.27
-11.719,27.832,21.973,-5.371,77.148
-6.836,30.762,21.973,-9.766,51.758
-4.395,33.203,18.066,-11.719,25.391
-3.906,29.785,16.602,-7.812,-0.977
-2.93,30.273,16.602,-4.883,-18.555
2.93,33.203,16.113,-2.93,11.719
11.719,31.738,16.113,0,85.938
15.137,32.227,18.066,4.883,37.109
18.066,33.203,17.578,8.789,-22.461
20.02,31.738,20.508,15.625,72.266
17.09,30.273,23.926,23.926,75.195
13.184,31.738,22.461,23.438,-14.16
15.137,33.691,21.484,21.973,32.715
16.602,33.203,26.367,22.949,71.289
13.184,34.18,28.32,20.996,37.598
13.672,34.18,26.855,19.043,47.852
13.184,32.227,25.879,15.625,-4.395
9.766,34.18,19.043,14.16,-38.574
11.719,37.598,16.602,13.672,-39.551
20.02,33.691,21.484,16.113,-51.758
9.766,29.785,24.902,6.836,-9.277
-0.977,31.738,24.414,-3.418,-4.883
-2.441,29.785,27.832,-2.93,-15.137
1.953,28.32,29.297,1.465,-40.527
2.441,28.32,32.715,1.465,-6.836
5.859,29.785,31.25,-1.465,4.883
-2.441,32.715,27.344,-2.93,-10.742
-9.277,30.273,28.809,-5.859,14.648
-7.812,26.367,30.273,-8.301,16.113
-17.09,23.438,37.109,-10.742,1.953
-12.207,24.902,39.551,-18.066,31.25
-8.301,23.438,36.621,-15.625,40.039
-7.812,23.926,37.109,-5.859,34.668
2.441,27.344,32.227,2.93,-25.879
5.859,26.367,32.227,4.883,-34.18
1.953,28.809,34.18,-0.488,9.766
3.418,32.227,36.133,3.418,20.996
16.113,28.32,37.109,7.324,43.945
16.602,29.297,32.715,8.301,21.484
12.695,29.297,31.25,12.695,0.488
16.602,28.809,33.691,15.137,18.555
20.02,28.809,34.668,24.414,29.785
19.531,32.715,33.203,30.273,8.301
13.672,31.25,29.785,24.414,18.066
11.719,23.926,32.227,19.531,22.461
7.812,24.902,32.715,12.695,-29.785
6.348,25.879,25.391,9.277,-29.785
9.277,24.414,30.762,9.766,4.395
1.953,22.949,30.273,-2.441,-3.418
-5.371,25.879,21.484,2.441,61.523
-2.93,25.879,23.438,10.742,56.641
-7.812,21.973,23.926,-5.859,43.945
-13.672,21.484,23.438,-18.066,32.227
-12.207,23.926,28.32,-11.23,4.883
-15.137,27.344,29.297,-10.742,66.406
-20.02,27.832,26.367,-19.043,72.266
-19.043,27.832,25.879,-20.996,87.891
-14.16,30.273,24.902,-16.113,61.523
-16.602,30.273,25.879,-12.695,-24.902
-9.277,29.297,22.461,-8.789,-20.02
4.883,28.32,25.879,-2.441,30.762
4.883,29.785,25.879,6.836,69.824
-5.371,31.25,23.926,6.836,94.238
-6.836,27.344,28.32,2.441,51.758
-4.395,21.484,28.809,3.906,39.062
4.883,24.902,24.414,3.906,1.465
14.16,26.367,22.461,5.371,-20.996
18.066,27.344,26.367,15.137,0
15.137,30.273,26.367,20.508,16.602
17.09,24.414,19.531,24.414,42.969
28.809,20.508,25.391,21.484,28.32
28.32,27.832,24.414,14.16,97.168
21.973,28.809,24.414,18.555,78.613
19.043,27.832,27.344,15.137,12.207
19.043,31.738,22.461,11.719,41.992
19.043,27.832,23.926,15.137,88.379
16.113,29.785,22.949,12.207,37.109
4.395,36.133,28.809,0.977,-29.785
8.301,27.344,26.367,4.395,0.977
10.254,20.02,20.996,12.207,19.531
5.371,20.508,30.273,10.742,29.785
14.16,20.02,23.438,14.648,4.395
7.324,21.484,21.973,15.137,-43.457
0.488,17.578,25.391,13.184,-22.461
-1.465,17.578,20.996,13.672,25.391
-5.371,21.484,17.09,5.371,89.355
-15.625,24.414,21.973,-1.953,52.734
-26.855,20.508,34.18,-9.277,-31.25
-9.766,21.973,21.973,-5.859,-10.742
8.789,23.438,15.625,22.949,37.109
2.93,26.855,23.926,24.414,51.27
6.348,27.832,19.043,15.625,36.133
9.766,22.949,22.461,18.066,13.184
10.742,23.926,26.367,19.043,14.16
-1.465,20.996,32.715,7.324,38.086
-9.766,28.809,23.926,7.324,43.945
-9.766,29.297,18.066,8.301,36.621
3.906,18.066,26.367,11.23,38.086
20.996,28.809,20.508,26.855,40.039
15.625,30.762,20.02,26.855,41.992
14.648,20.02,23.926,27.832,-1.465
14.648,24.414,20.508,23.438,8.301
20.996,26.367,24.414,24.902,57.129
20.996,26.367,27.832,26.855,36.133
18.555,23.926,26.367,20.508,27.832
22.461,26.855,21.973,20.996,23.926
21.484,32.227,22.949,24.902,-14.16
20.996,30.762,21.484,23.438,13.184
10.254,26.855,26.855,16.113,16.602
7.812,27.832,30.273,11.719,-33.203
3.906,28.809,20.508,7.812,-63.965
-0.488,27.344,22.949,6.348,3.906
3.418,29.785,22.461,10.742,65.43
-5.859,29.297,22.461,5.371,-14.16
-11.23,30.762,21.973,-5.371,-21.973
-7.812,26.367,20.508,-1.953,38.086
5.371,21.973,22.949,-0.488,45.41
7.812,28.809,20.508,1.953,39.551
16.113,32.715,21.484,6.348,-36.621
10.254,29.297,23.438,9.766,-54.199
-11.23,30.762,28.32,0.488,-9.766
-5.859,29.785,29.785,-0.977,8.789
6.836,26.367,22.949,24.414,22.461
2.93,23.926,29.785,26.367,21.484
-14.648,24.902,25.879,18.555,41.504
-13.184,28.32,16.113,26.367,34.668
0,25.879,25.879,20.508,22.949
-0.488,28.32,22.949,16.113,28.809
8.789,25.879,15.625,19.043,-49.805
11.23,25.391,20.996,23.438,-13.672
6.836,28.809,20.508,18.066,31.738
1.465,28.809,19.531,8.789,13.184
5.371,28.32,22.949,16.113,40.039
-6.836,31.738,26.367,12.695,30.273
-21.484,27.832,24.902,5.371,-8.301
-14.16,20.02,23.438,6.348,1.953
-8.789,27.344,26.855,8.301,16.113
-6.836,31.738,21.973,-0.977,12.695
-0.488,21.973,23.926,0,16.113
-3.906,26.367,20.996,-2.441,-15.137
-15.625,30.273,21.484,-11.719,-12.695
-30.762,22.461,28.809,-3.418,-1.953
-27.832,24.414,22.461,-0.977,-10.254
-9.766,33.203,19.043,2.441,20.02
7.324,27.832,21.484,-1.465,11.23
2.93,21.484,20.996,-2.441,-46.875
-6.836,24.902,19.531,5.859,6.348
-10.742,29.785,21.484,6.348,76.172
-9.766,30.273,26.855,-4.883,48.34
5.371,24.414,23.926,-2.93,68.848
8.301,27.832,20.02,10.742,57.617
8.789,27.344,22.461,21.484,-17.09
4.395,23.438,25.879,20.02,-53.711
8.301,26.367,29.297,4.883,15.137
22.949,24.902,21.484,11.23,-8.301
-3.906,18.066,35.156,11.719,-31.738
-5.859,15.137,34.18,5.371,30.273
20.996,19.531,7.812,19.531,37.598
13.184,23.926,17.09,17.09,14.16
20.508,26.367,21.484,21.484,59.082
20.996,25.879,20.996,21.484,67.871
15.137,32.715,18.066,0,2.93
27.344,28.809,20.508,3.418,-1.465
33.203,25.391,25.879,19.531,16.602
15.137,26.367,24.414,5.859,2.93
9.766,30.273,16.113,-6.348,24.902
20.02,36.133,14.648,5.859,54.688
20.02,35.645,26.855,11.719,54.688
29.785,35.156,28.809,10.254,7.324
28.809,37.598,27.344,12.207,3.906
13.184,42.48,29.297,-2.441,-11.23
-1.953,46.387,25.391,-20.508,-9.277
18.555,43.457,22.461,-5.371,13.184
36.133,38.086,28.32,14.16,41.992
35.156,34.18,30.273,13.184,14.16
36.133,31.738,34.18,16.113,-11.719
38.086,39.551,34.668,14.16,15.137
39.551,40.039,29.297,4.395,12.207
48.34,36.133,30.273,9.766,14.648
60.547,45.898,27.344,12.207,-7.324
61.523,48.828,26.367,12.207,34.18
67.871,44.922,26.855,19.531,140.137
77.148,45.898,25.879,21.973,56.641
73.73,42.969,26.367,17.578,-21.484
74.707,38.574,26.367,19.531,2.93
77.637,41.504,25.879,24.414,-10.742
77.148,41.992,24.414,15.625,0.977
81.055,37.109,22.949,9.277,54.688
82.52,36.621,25.391,19.043,25.391
78.613,37.109,25.879,23.926,56.641
78.125,40.039,27.344,22.949,79.102
81.055,41.504,28.809,25.879,-10.254
81.055,38.574,32.227,19.531,-35.156
78.125,39.551,34.668,14.648,11.719
74.219,39.551,31.25,13.184,40.527
71.777,38.574,32.715,12.207,21.484
59.57,41.016,33.203,13.672,33.691
56.641,37.109,32.715,15.137,70.312
64.941,34.668,30.762,13.672,-3.418
62.988,35.645,27.832,8.301,-15.137
55.664,36.133,30.762,8.789,52.246
46.387,38.086,31.738,10.742,33.691
40.527,38.086,31.738,10.254,18.555
40.039,36.133,35.156,14.16,0.977
42.969,35.156,36.621,15.137,36.133
44.922,34.668,29.297,17.09,51.758
40.039,38.086,26.855,13.672,62.012
39.551,39.551,29.785,13.184,76.172
41.016,35.645,31.738,19.043,46.387
41.016,37.598,30.762,20.996,33.203
41.016,39.062,29.785,23.438,21.484
38.574,33.203,28.32,18.555,-45.41
37.109,33.691,27.832,19.531,-8.301
40.039,36.133,28.32,27.344,20.996
38.574,34.668,25.391,18.555,13.672
38.574,33.203,23.438,13.184,43.457
37.109,32.715,25.391,15.137,1.953
30.273,33.691,24.902,14.16,-20.02
25.879,28.32,23.926,10.742,-59.082
21.484,23.926,28.32,5.371,5.859
23.926,30.762,27.832,8.789,90.82
21.973,37.598,26.855,10.254,33.203
21.484,28.32,27.344,13.184,-18.555
20.508,24.902,28.809,8.789,-36.133
20.508,29.297,27.832,10.254,-26.855
19.531,26.855,27.344,11.23,8.301
13.184,28.32,27.344,6.836,21.484
7.812,31.25,29.297,0.488,27.344
10.742,32.227,29.785,1.465,28.32
11.23,30.273,26.855,5.371,94.238
13.184,32.715,24.902,5.859,92.773
15.625,35.645,28.32,12.207,86.426
14.16,33.203,28.809,12.207,87.891
17.09,35.156,25.879,4.883,58.594
14.648,33.691,27.344,10.254,102.539
14.16,33.203,24.902,16.602,21.973
14.16,36.133,23.438,13.672,9.277
13.184,31.738,24.902,10.742,25.879
18.555,25.879,27.344,17.578,6.836
22.461,26.367,29.785,25.879,30.273
18.555,27.832,26.367,12.695,-13.184
11.719,25.391,23.438,2.441,-3.418
15.625,27.344,22.949,5.859,0.977
14.648,32.227,24.414,7.324,6.348
8.301,29.785,24.902,3.906,14.16
12.695,26.855,23.438,7.812,2.93
14.648,28.809,24.902,12.207,8.301
10.742,28.809,25.391,9.277,39.062
9.277,31.25,26.855,2.93,28.809
7.324,30.273,26.855,-0.977,-7.324
5.371,30.273,21.973,0,1.465
7.324,32.715,23.926,0,12.695
7.812,31.738,23.926,-2.93,19.043
3.418,29.785,22.461,-7.812,67.383
3.418,27.832,23.926,-5.859,66.406
1.953,29.297,24.902,-6.348,20.996
-1.953,30.273,27.344,-2.93,24.414
-2.441,28.809,31.25,2.93,99.609
-1.953,28.32,26.367,3.906,33.203
-1.465,27.344,24.902,2.93,-7.324
6.348,25.391,25.879,0,52.734
9.277,26.855,25.879,2.441,35.156
5.371,29.297,25.391,11.23,32.227
11.23,32.715,22.949,15.137,22.949
17.578,34.668,23.926,15.625,-5.859
15.137,36.133,23.926,15.625,-9.277
13.672,33.691,22.949,11.719,8.789
17.578,30.273,19.043,9.277,0
17.09,33.691,20.996,4.883,3.906
9.766,33.691,21.484,-0.488,13.184
3.906,27.832,17.09,0.977,-45.41
2.441,26.367,17.09,0,-62.5
3.418,23.438,23.926,3.418,26.367
17.09,27.832,24.414,16.602,1.465
16.602,36.133,14.16,13.184,-30.762
5.371,37.598,14.16,0,52.734
6.348,35.645,14.648,-1.465,15.137
10.254,33.691,11.23,4.395,25.879
12.207,39.551,8.301,2.441,66.895
1.953,39.062,10.254,-6.836,7.812
-1.953,33.203,13.184,-4.395,5.859
3.418,34.18,12.207,-8.789,9.766
-3.418,33.203,14.648,-15.137,26.855
-7.324,34.668,18.066,-8.789,60.059
-9.277,34.18,19.531,-6.348,12.207
-11.719,31.738,19.043,-2.441,15.137
-10.742,31.738,19.043,0,47.852
-1.465,32.227,18.066,0.488,65.43
3.906,34.668,19.043,4.395,52.246
3.906,33.203,23.926,9.277,44.434
6.348,34.18,24.902,8.789,28.32
4.883,34.668,25.391,9.277,-9.277
9.277,35.156,27.832,10.742,19.531
15.625,37.109,30.273,7.812,62.988
11.719,36.621,30.762,8.789,46.387
7.812,33.203,28.32,7.324,35.645
10.254,33.691,26.855,6.348,25.391
7.812,32.227,29.297,8.301,-3.906
6.836,29.297,28.32,7.324,22.949
4.395,31.738,29.297,7.812,38.086
8.301,33.203,28.809,6.348,-14.16
12.207,31.738,26.855,6.836,23.926
10.254,32.715,29.297,11.23,67.871
10.254,31.738,25.391,10.742,9.766
9.766,32.227,23.926,2.93,2.441
10.254,34.668,26.855,3.906,29.785
13.672,35.645,27.832,8.301,19.531
8.789,35.156,28.809,5.371,-9.766
2.93,35.156,28.809,7.812,10.254
6.348,38.574,27.344,11.23,0.488
10.742,36.133,27.832,7.812,-15.625
9.277,35.645,26.367,5.371,11.23
5.371,35.156,28.32,9.277,-5.859
4.883,35.645,30.273,10.742,3.906
5.859,36.621,25.879,2.441,-9.766
4.395,34.668,22.949,0,18.555
5.371,34.18,23.438,3.418,39.062
13.184,33.691,22.949,10.742,28.32
12.207,34.18,24.414,14.648,30.762
10.254,34.18,24.414,17.09,40.039
15.625,35.156,25.391,20.508,-20.996
22.461,34.668,27.344,22.949,-43.945
23.438,35.645,24.902,25.879,14.648
20.996,37.109,24.414,23.438,-54.688
28.32,33.691,26.855,28.809,-46.875
28.809,35.156,32.715,35.156,23.438
20.02,38.086,31.25,21.973,20.508
19.043,35.645,27.344,12.695,20.02
22.461,37.598,27.832,21.973,19.531
23.438,40.039,25.879,29.785,7.324
22.949,41.992,23.438,22.949,11.23
16.113,39.551,24.902,20.02,32.715
12.207,39.062,25.879,19.043,28.32
19.043,41.016,25.391,18.555,5.859
24.414,40.527,25.879,19.043,14.648
20.996,43.457,24.902,16.602,14.16
13.672,40.527,24.414,12.695,5.859
15.137,40.039,25.879,8.301,-14.648
18.066,43.945,24.902,9.766,-29.297
15.625,44.434,23.926,13.672,6.348
14.648,40.039,24.902,9.766,62.988
14.16,39.551,26.855,2.93,51.758
11.719,42.48,25.391,2.441,20.02
4.883,43.457,24.902,2.93,32.227
9.766,44.434,24.414,5.371,50.781
13.184,41.992,24.414,4.395,51.758
10.742,40.527,22.949,4.395,19.043
12.207,41.504,21.484,9.766,12.207
11.719,40.039,20.02,10.742,-16.113
13.672,39.062,18.066,15.137,-30.273
15.625,38.574,16.602,16.602,14.16
15.625,35.645,19.043,17.578,10.254
15.625,33.203,21.973,19.043,-7.324
18.555,33.203,20.996,20.02,34.18
24.414,35.156,20.508,26.855,24.414
23.438,34.668,20.02,25.391,-0.488
23.926,34.668,20.02,18.066,-15.137
31.738,38.086,22.461,20.508,12.695
26.367,37.109,24.414,21.484,-8.789
21.484,35.156,21.484,19.043,-15.137
21.973,36.621,18.555,14.16,35.645
21.973,34.18,18.066,8.789,49.316
20.996,33.691,17.578,11.719,34.668
19.043,34.18,16.602,14.16,5.859
20.996,30.273,18.066,14.648,11.719
22.949,31.25,20.508,15.625,28.809
21.484,33.691,22.461,10.742,44.922
16.602,34.668,23.438,8.301,39.551
12.207,36.133,25.391,8.301,37.598
9.277,37.109,26.367,12.695,74.219
5.371,31.738,23.438,6.836,62.5
6.836,32.227,21.973,2.441,40.527
8.301,34.668,23.926,6.348,59.57
0,32.715,22.461,4.395,-17.578
0,31.738,21.973,0.488,-20.996
4.395,30.762,25.879,4.883,33.203
6.348,31.25,27.344,10.254,16.113
4.395,31.738,28.809,8.789,0.488
7.812,31.738,26.855,12.695,28.809
10.742,30.273,27.832,17.09,65.43
9.766,34.668,28.32,15.137,54.688
13.672,36.621,24.414,14.648,27.344
12.695,32.715,27.832,16.113,44.922
12.207,31.738,29.785,12.207,116.211
11.719,32.227,26.367,13.672,101.074
15.625,34.668,26.367,17.578,29.785
14.648,33.203,31.25,12.207,29.297
10.254,29.297,31.25,5.859,41.016
9.277,29.785,29.297,5.859,15.137
9.766,33.203,30.762,8.789,36.621
9.766,33.691,27.832,9.277,9.766
7.324,31.25,27.832,3.418,22.949
6.348,31.738,31.738,3.418,49.316
7.812,32.715,31.25,6.836,-3.906
8.301,32.715,32.227,4.395,-10.742
7.812,33.203,28.809,2.441,42.969
4.883,34.18,25.391,2.93,70.801
5.371,33.203,23.926,2.93,95.703
6.836,30.762,21.973,2.441,105.469
4.395,30.762,23.438,2.441,55.664
1.953,31.738,25.391,6.348,37.109
2.441,30.273,25.391,11.23,27.344
1.465,31.25,24.414,6.348,-9.277
-2.93,31.738,24.414,6.348,43.945
-2.441,29.785,25.391,11.23,35.645
-1.465,28.32,24.902,8.301,-38.574
-4.395,27.344,26.367,11.719,2.441
1.953,28.809,28.32,17.578,63.965
8.301,32.227,26.855,15.137,29.785
8.301,32.715,24.414,9.277,-10.742
11.719,32.227,22.949,8.301,-41.992
16.602,34.668,22.461,7.324,-43.945
22.949,33.691,22.949,6.348,15.625
25.391,34.668,24.414,5.371,62.5
27.344,35.645,24.902,3.418,31.738
22.949,32.715,23.438,5.859,4.883
17.09,32.227,20.996,10.742,4.883
20.508,31.25,20.996,13.184,-5.859
19.043,31.738,22.461,9.277,27.832
13.672,32.715,22.949,11.23,1.465
7.324,31.738,21.484,15.137,-5.371
-0.488,29.785,20.996,17.578,38.574
-1.953,28.32,23.926,14.16,48.828
3.418,28.809,24.902,9.766,46.875
6.348,29.297,22.461,9.277,1.953
2.441,26.367,21.484,8.789,-22.461
4.395,25.391,21.973,14.648,-18.066
4.395,22.949,24.902,15.625,35.156
2.93,20.996,26.855,16.602,35.645
3.906,23.438,25.391,16.602,-22.461
5.859,23.438,27.832,18.555,-10.742
4.395,27.344,27.832,15.137,44.434
0,28.32,25.879,5.371,88.379
4.395,27.832,25.879,6.836,42.969
3.906,29.297,27.344,8.789,-10.254
-1.953,28.32,25.879,1.953,-5.859
-1.953,31.25,26.367,-1.953,-23.438
0.488,30.762,29.785,1.953,16.113
0,27.832,30.273,8.301,16.113
2.93,25.879,27.832,10.742,-4.883
4.395,26.855,27.832,8.301,39.062
2.441,27.344,28.32,7.812,109.863
3.906,26.855,25.879,7.324,85.938
7.324,25.879,24.902,5.371,-5.859
5.371,26.367,22.949,4.395,16.602
4.395,29.297,21.973,1.953,32.715
4.883,32.227,21.973,1.953,21.973
3.418,32.715,20.02,-2.93,-22.949
-2.93,30.273,21.484,-0.977,-70.801
-0.977,28.32,27.344,6.348,-1.953
0,31.738,29.297,3.418,13.672
0,37.598,26.855,1.953,-6.836
1.465,35.645,26.367,3.418,43.457
-2.441,32.715,26.855,4.395,38.574
-3.906,33.691,26.855,4.883,71.777
-1.465,36.133,27.832,9.766,49.805
-0.488,38.574,29.785,12.695,63.477
0.488,39.551,29.785,7.324,59.57
-2.441,35.156,28.32,10.254,6.348
-5.371,32.227,28.32,15.625,45.898
0,34.18,25.879,12.207,16.113
5.371,33.203,23.926,8.789,0
5.371,35.645,23.926,7.324,-11.719
3.906,39.062,23.926,2.93,4.395
6.836,38.574,23.926,-0.488,21.973
10.254,39.551,24.902,1.465,61.523
12.207,36.621,25.879,1.465,49.805
18.555,32.227,26.855,4.395,-40.527
18.066,37.109,31.25,10.254,24.902
17.578,37.598,30.762,14.16,60.547
17.578,34.18,29.297,14.648,34.668
13.672,35.645,31.738,12.695,33.691
14.648,35.156,33.203,14.648,-15.137
19.043,34.668,31.738,12.695,33.203
21.484,34.668,31.738,9.277,57.129
13.672,33.203,32.227,10.254,36.621
8.789,34.18,27.344,13.184,-4.395
7.812,36.133,27.832,13.184,17.578
7.812,37.109,31.738,9.277,26.855
10.254,37.109,32.715,10.254,-42.48
10.742,36.621,31.738,13.184,3.906
10.254,36.621,27.832,13.672,24.902
14.16,34.668,26.367,10.254,14.648
14.16,32.227,28.809,4.883,24.414
13.184,33.691,29.297,7.812,-6.836
17.578,33.691,32.715,10.254,47.852
20.02,32.715,35.156,13.672,51.27
17.578,33.691,33.691,21.484,-5.371
20.508,34.18,33.691,18.066,-28.809
19.043,35.156,35.645,15.625,-21.973
18.555,33.691,35.645,18.066,-8.789
20.996,35.645,36.133,20.508,6.348
20.508,39.551,35.156,20.996,31.738
20.996,41.992,28.809,16.602,26.855
16.602,39.551,26.855,18.066,8.301
12.695,40.039,25.879,16.113,17.09
11.23,42.48,22.949,13.184,7.324
8.301,37.598,24.414,12.207,25.391
9.277,39.551,20.508,10.254,18.555
15.625,41.016,20.996,9.766,18.066
15.625,39.062,25.879,8.789,79.102
17.09,40.039,22.461,7.812,46.387
16.602,41.504,23.438,9.766,30.762
13.184,39.551,26.855,13.672,22.949
12.695,36.133,25.879,13.184,3.418
9.766,39.062,25.391,9.277,12.207
9.277,38.086,27.344,5.859,24.902
11.23,34.668,26.367,8.301,21.973
8.301,36.133,22.949,8.789,6.348
6.348,38.086,23.438,2.93,49.805
2.441,39.551,23.438,2.441,24.414
3.906,36.621,22.949,6.836,23.926
10.254,36.621,23.926,9.766,54.688
10.742,38.086,21.973,10.742,-20.02
9.277,39.062,20.996,9.766,-29.297
3.906,40.039,24.902,7.812,11.23
2.93,39.551,24.414,6.836,-12.207
9.766,39.062,25.391,9.766,-7.812
10.742,37.598,27.344,15.137,42.48
7.324,35.645,26.367,13.672,64.453
13.184,36.621,28.32,15.625,41.016
22.949,35.156,34.668,14.648,27.832
19.043,30.762,34.668,7.812,25.879
18.555,32.715,30.762,12.695,43.457
24.414,35.645,27.344,12.695,44.922
19.531,32.715,29.297,9.277,25.391
22.949,33.203,33.691,12.695,18.066
17.578,34.18,31.738,11.719,-5.859
10.742,33.691,29.297,11.23,42.48
17.578,31.738,30.762,13.672,20.508
18.066,32.227,29.785,13.672,-12.207
18.555,31.738,28.32,14.648,34.18
14.648,32.715,27.344,9.766,3.906
12.695,33.691,26.855,6.836,-37.598
17.09,34.668,26.855,8.789,-14.16
13.184,33.691,25.879,6.836,-0.977
9.766,32.227,26.367,6.348,14.648
10.742,31.738,26.367,11.23,49.316
9.766,29.297,28.809,12.207,90.82
7.812,30.762,28.32,7.812,54.688
3.418,33.203,27.832,7.812,8.789
-3.418,28.809,31.25,8.301,55.664
-7.324,27.832,31.25,8.301,83.984
-4.883,28.32,28.32,8.789,60.547
-1.465,29.785,25.879,13.672,-1.465
-4.395,29.785,23.926,11.719,-11.23
-3.906,25.391,25.391,8.301,-17.09
1.465,24.902,28.809,10.742,24.902
3.906,25.879,26.855,10.254,88.379
10.742,22.949,23.926,8.301,51.27
14.16,23.438,28.32,8.789,-3.906
11.23,25.391,30.273,12.207,20.508
14.16,28.809,26.855,9.277,41.016
16.602,28.32,27.344,4.395,4.395
13.184,29.297,31.25,2.441,-19.531
10.742,28.809,31.25,3.418,30.273
6.348,23.926,29.785,4.395,22.461
8.301,27.344,31.738,2.441,-28.809
9.277,28.809,34.668,2.441,4.395
1.465,26.367,31.738,4.395,-9.766
-5.371,27.344,30.762,4.395,-7.324
-3.906,29.785,32.227,4.883,91.797
-1.953,28.32,31.25,7.324,73.242
-2.441,28.32,30.762,8.301,-7.324
3.418,29.297,31.738,12.695,-21.973
12.207,31.25,32.227,16.113,-18.555
14.16,33.691,33.691,12.695,-4.883
13.184,32.227,34.18,9.766,9.277
13.184,30.762,29.785,13.184,-20.508
12.695,33.203,28.809,13.184,15.137
11.719,33.203,28.809,9.766,31.25
12.695,31.25,27.344,17.578,29.297
10.254,32.715,27.832,20.996,85.449
11.23,34.668,25.879,16.113,47.363
15.625,36.133,23.926,20.508,16.113
16.113,34.668,27.344,23.926,-14.16
20.508,31.738,26.855,24.414,-8.789
18.066,30.762,25.879,28.32,13.672
15.137,30.762,25.879,26.367,15.137
20.996,27.832,23.926,22.461,42.969
24.902,30.273,21.484,21.973,47.852
21.484,32.715,22.461,20.02,46.387
25.391,32.227,22.461,23.438,-5.371
30.762,35.645,20.996,23.926,-31.25
26.367,37.598,20.996,21.973,-12.695
22.949,35.156,20.508,21.484,18.555
21.484,34.18,20.508,17.09,53.711
20.508,34.668,23.438,10.742,41.504
20.508,32.227,24.902,7.812,68.848
18.555,32.715,24.414,6.348,72.266
12.207,31.738,25.391,2.93,32.227
8.789,29.785,23.926,5.371,15.625
3.418,29.297,22.949,7.812,-51.27
0.977,24.414,27.832,7.324,-13.184
2.441,25.391,31.738,13.184,115.723
-0.977,25.879,28.809,17.09,82.031
-6.836,20.508,30.762,14.648,28.809
-13.184,22.461,32.227,10.742,42.48
-14.648,22.461,29.785,11.719,75.195
-12.207,22.461,28.809,7.324,47.363
-8.301,25.391,29.785,4.883,30.273
-8.789,22.949,30.273,7.324,36.133
-7.324,24.902,26.855,5.371,-20.508
0.488,28.809,28.32,7.812,18.066
6.836,30.273,29.297,6.348,51.758
8.789,32.227,24.902,7.324,6.348
10.742,32.715,21.484,6.836,42.969
7.324,32.715,22.949,2.441,-9.766
3.418,32.227,24.414,2.441,-28.32
3.906,33.203,23.926,0.977,-4.395
1.953,33.203,24.414,-2.441,-5.859
-2.441,32.227,24.414,-7.812,23.438
-1.953,33.691,28.809,-4.883,39.551
4.883,34.18,30.762,1.465,83.984
2.441,32.715,30.273,-3.906,81.543
-3.906,31.25,27.344,-5.859,-37.598
-8.301,34.18,25.879,-4.395,-83.008
-7.324,35.156,31.738,-0.977,24.414
-5.859,32.715,30.762,-0.977,48.34
-9.277,33.691,31.25,-4.395,28.809
-6.836,34.18,34.18,-1.465,16.113
-1.953,35.156,36.133,2.93,57.617
-2.93,36.133,34.668,2.441,93.75
-3.418,35.645,34.668,3.418,27.832
-3.906,34.668,35.156,5.859,-31.738
-7.812,33.203,33.691,4.883,12.695
-7.812,32.715,30.762,4.395,58.105
-3.906,32.227,32.227,4.395,14.16
-1.953,31.738,34.18,1.953,29.297
0.488,32.227,31.738,-0.488,61.523
3.418,33.691,29.785,0,19.043
4.395,34.668,24.902,4.395,17.09
5.371,36.133,23.438,4.395,47.852
9.766,36.621,24.902,5.371,25.391
11.23,35.156,27.344,8.789,3.906
8.789,33.691,26.855,6.836,-14.648
4.883,36.621,25.391,4.883,-2.93
4.395,35.156,27.344,3.418,42.969
3.906,30.273,28.809,0.488,33.691
7.812,30.273,28.809,1.953,-19.531
7.324,33.203,26.367,4.883,31.25
6.348,34.18,21.973,4.883,39.551
7.812,32.715,23.438,3.418,-26.367
8.301,33.203,27.344,0.488,-1.953
10.742,35.645,26.855,3.418,3.906
6.836,38.086,25.879,3.906,-27.344
6.836,35.156,25.391,3.418,2.93
5.371,32.227,26.367,1.465,7.324
-0.488,31.738,28.809,2.441,11.719
1.465,32.227,32.227,7.324,16.113
-1.465,33.691,31.25,4.883,18.555
0,35.645,32.227,2.93,55.664
0,36.621,34.18,0.977,74.707
0.488,32.715,32.715,-0.488,55.664
-2.441,32.227,35.645,1.953,58.594
-12.695,33.691,36.133,3.906,67.871
-11.23,31.25,34.18,4.883,26.855
-7.324,28.809,34.18,0.488,35.645
-5.859,30.273,32.227,-1.953,48.34
1.465,34.18,32.227,7.324,-9.277
4.883,35.156,38.086,12.695,8.301
7.324,34.668,42.969,12.695,41.504
10.254,36.621,39.551,12.695,-0.977
13.672,36.621,39.551,14.648,-10.742
19.043,32.715,41.992,19.043,0
17.578,33.203,39.062,16.602,-42.969
11.719,34.668,36.621,6.348,-51.758
13.184,33.203,36.621,6.836,-25.391
15.625,32.715,34.18,9.766,22.949
9.277,31.25,29.785,4.395,55.664
8.301,29.297,29.785,1.465,22.949
9.766,32.715,29.785,2.441,7.324
5.859,35.645,26.855,-1.465,20.508
4.883,31.738,24.414,-4.395,28.32
3.418,28.809,23.438,-1.465,-58.105
-0.977,27.832,21.484,0.488,-11.23
-4.395,29.785,21.973,1.953,61.035
-1.953,29.297,22.949,0,49.316
-2.93,27.832,23.926,0,36.133
-2.441,27.344,23.438,2.93,31.25
-2.93,24.414,20.996,-3.418,48.828
-13.184,24.902,20.02,-11.719,-3.906
-14.16,27.344,18.555,-8.301,-0.488
-9.277,29.785,18.555,-6.836,78.613
-7.812,30.273,21.484,-3.906,71.289
-4.395,29.297,23.438,-0.977,46.387
0.977,32.227,21.484,-0.977,8.789
1.465,31.25,20.996,2.93,-11.719
0,28.809,21.484,5.371,-10.742
7.812,28.32,21.973,13.184,25.391
19.531,27.832,24.902,26.367,21.484
16.113,32.227,23.438,21.484,-30.762
10.254,38.086,19.043,9.766,24.414
13.184,41.504,19.531,11.23,74.707
16.602,41.992,18.066,9.766,59.57
17.09,42.48,16.602,1.953,8.789
8.301,44.922,18.555,-4.883,1.953
1.953,46.875,15.137,-10.254,14.648
3.906,44.434,12.695,-11.23,-14.648
-0.488,43.945,14.648,-14.648,-21.484
-8.301,49.316,16.602,-14.648,-28.809
-5.371,48.34,20.02,-17.578,-23.438
4.883,43.945,25.391,-21.973,-12.695
4.883,41.992,23.438,-21.484,14.648
-2.93,41.016,20.508,-22.949,3.906
-3.906,40.527,21.973,-20.02,-62.5
-2.93,40.039,24.414,-10.742,-15.625
-4.883,38.574,23.438,-0.977,48.828
-5.859,37.109,24.414,-1.465,40.527
-4.883,39.062,26.367,0.488,-26.367
-6.348,40.039,26.855,4.395,-51.758
-11.719,40.039,27.832,0,34.668
-9.766,37.598,24.902,-3.906,83.496
-9.766,33.691,23.926,-3.418,34.18
-13.184,35.645,23.926,0.977,-3.906
-7.324,34.18,23.438,-0.977,30.273
-0.977,31.738,21.973,0,56.152
-0.488,32.227,20.508,4.883,56.641
-2.93,32.227,19.043,7.324,37.109
-2.441,29.785,20.508,8.789,3.906
1.953,31.738,22.461,9.766,22.461
7.324,34.668,21.973,15.625,63.965
9.277,33.691,21.484,13.184,10.254
9.766,32.227,21.484,11.719,-15.625
12.207,32.715,20.508,16.602,-26.855
8.301,33.203,21.973,5.371,-55.176
1.953,30.762,22.461,-3.418,-4.883
-3.906,27.344,22.461,-1.465,20.508
-5.371,25.879,21.973,-1.953,54.199
-4.883,25.391,20.996,-4.883,93.262
-12.695,27.832,21.484,-8.789,58.105
-9.766,30.273,23.926,-7.324,31.25
-6.348,31.738,22.949,-6.348,28.809
-6.836,30.273,22.461,-1.953,79.59
-5.371,25.391,21.973,0.488,46.387
-9.766,22.949,23.438,-3.906,17.578
-14.16,29.297,20.508,-5.859,74.707
-14.16,29.297,19.531,-2.441,58.594
-9.277,25.391,22.461,4.395,11.719
-8.789,25.879,20.996,5.859,-35.156
-7.812,27.344,22.461,5.371,-37.109
0,27.344,23.438,8.301,13.672
2.441,26.367,23.438,13.184,-10.254
-1.465,27.832,26.855,18.066,-36.133
7.324,29.785,24.902,21.973,-8.301
9.766,28.32,24.414,26.367,41.992
7.324,29.297,26.367,28.809,43.457
9.277,30.762,27.344,24.902,-18.555
10.254,29.297,28.32,23.926,-57.617
14.16,32.227,27.344,23.926,10.254
17.578,37.109,27.344,20.02,-9.277
20.996,38.086,29.785,19.531,-59.082
22.461,37.598,33.203,20.02,8.789
23.438,41.016,33.203,24.414,5.371
21.973,40.527,26.855,27.344,38.574
24.414,39.062,27.344,28.32,37.598
26.855,40.039,28.809,20.996,23.926
14.16,37.109,26.367,15.625,28.809
10.254,38.574,27.344,13.184,32.715
15.137,40.527,23.438,6.348,88.379
12.695,39.062,25.391,5.859,120.605
8.301,39.551,29.785,7.324,103.516
11.23,40.039,28.32,8.301,5.371
9.766,39.062,29.785,3.906,-3.418
4.883,38.574,29.785,0,37.109
9.277,37.598,29.785,2.93,41.992
14.16,37.109,30.762,11.719,20.996
13.672,36.621,32.227,13.672,-59.082
11.23,36.133,33.203,15.625,-58.594
12.695,36.133,30.273,18.066,31.738
14.648,36.133,27.832,16.602,49.805
12.695,38.086,27.832,13.184,10.742
20.02,35.156,27.832,14.16,27.832
24.902,33.203,27.344,20.508,16.113
20.02,37.109,26.855,24.902,-9.766
21.484,38.574,27.344,23.926,39.551
25.391,38.086,28.809,24.902,13.672
30.273,37.598,27.344,22.461,-20.996
30.762,38.574,21.973,15.137,50.781
31.25,40.039,20.508,17.09,51.27
29.785,39.551,20.996,14.648,10.254
24.414,37.598,20.996,12.207,40.039
20.996,37.109,22.461,12.207,70.312
16.602,36.133,25.879,9.766,49.316
17.09,34.18,27.344,7.324,53.711
18.555,34.18,24.902,2.441,18.555
15.625,35.645,23.438,-2.441,10.742
6.836,30.762,25.391,-2.93,74.219
4.395,27.832,25.391,-2.93,12.207
4.883,30.273,26.367,0,37.598
1.465,28.32,28.809,0.977,66.895
9.277,28.32,27.832,4.883,13.184
3.418,31.738,27.832,4.395,15.625
-4.395,34.668,27.832,-1.465,0.977
-6.836,32.227,29.297,1.465,-1.465
-12.695,29.785,30.762,3.418,39.062
-12.207,31.25,30.762,-0.488,61.523
-10.254,34.18,33.203,-3.418,63.477
-12.207,34.668,29.785,-4.395,28.809
-16.113,31.738,29.297,-4.883,26.367
-17.578,28.32,30.762,-6.348,34.18
-14.16,29.785,29.785,-9.277,20.996
-8.789,30.762,31.25,-8.301,-2.441
-9.766,31.25,32.227,-4.395,9.277
-6.836,34.18,30.762,0.977,-35.156
0.488,36.621,27.344,1.465,-54.199
1.465,37.109,25.391,-1.465,-46.875
5.371,37.109,26.367,-2.93,-3.906
6.348,35.156,28.32,4.395,97.656
3.418,33.203,27.344,5.859,36.133
6.348,33.691,23.926,7.812,-40.527
9.277,33.691,24.902,3.418,28.32
6.348,32.227,26.367,0.488,39.551
3.906,33.203,24.902,2.93,28.809
2.441,30.273,21.973,-0.977,6.836
0.488,31.738,22.949,-3.906,2.93
-1.465,34.18,23.438,-3.906,6.348
-5.371,32.715,22.949,-1.953,-19.043
-11.23,32.227,22.949,-8.301,21.484
-16.113,32.715,25.879,-18.555,43.457
-13.672,31.25,26.367,-13.672,16.113
-12.695,29.297,23.438,-15.137,39.551
-16.602,30.762,23.926,-20.996,35.156
-11.23,31.25,24.414,-12.207,10.742
-9.277,29.297,26.855,-7.812,67.383
-8.789,30.762,30.762,-8.301,103.027
-0.488,31.738,27.832,-5.371,30.273
3.418,30.273,25.879,0.977,23.438
4.883,30.273,27.344,3.906,21.973
3.906,30.762,24.902,4.883,-6.836
3.418,29.297,27.832,8.301,-16.602
1.465,32.227,26.855,7.812,33.691
0.488,33.691,22.949,6.348,41.992
1.953,32.227,27.832,12.695,-43.457
3.906,30.273,26.367,12.695,-53.223
2.93,31.738,21.484,6.348,-0.977
3.418,32.715,21.484,4.883,44.922
5.859,33.203,20.996,7.324,69.336
8.789,32.227,19.043,13.184,64.453
10.742,31.738,22.461,12.695,30.762
3.418,31.25,23.926,11.23,12.695
5.859,30.273,23.438,15.625,-8.789
9.277,33.203,23.438,12.695,28.809
2.93,31.738,23.438,7.812,24.902
2.93,29.785,22.461,9.277,16.602
3.906,29.785,20.996,13.672,53.223
2.93,31.738,19.531,9.277,81.543
4.395,31.738,18.066,7.324,63.965
1.465,32.227,21.484,9.277,14.16
-2.93,33.691,21.973,4.395,43.945
-2.93,32.715,21.973,4.883,26.855
1.465,34.668,19.531,5.371,7.812
3.418,37.598,20.02,4.395,34.18
6.348,40.039,23.926,11.23,20.02
7.812,38.086,22.461,17.578,12.207
11.23,37.598,22.949,21.484,20.508
14.16,38.086,21.484,21.973,-23.438
12.207,36.621,21.484,15.137,-10.254
9.277,35.156,25.879,11.23,41.992
9.277,35.156,24.902,14.16,-17.578
8.789,39.062,23.926,13.184,-67.383
10.254,38.574,26.367,9.277,14.16
13.184,37.598,25.391,13.672,37.598
14.648,37.109,24.902,12.695,-12.207
11.719,35.645,24.414,14.16,-36.133
15.137,36.133,24.902,16.113,-54.199
14.648,36.133,25.879,14.648,51.27
8.789,36.133,27.344,13.672,90.332
11.23,38.574,27.832,14.16,33.691
13.184,39.551,28.32,11.23,21.484
16.602,36.133,28.809,13.184,76.66
15.137,35.156,34.18,20.02,83.496
10.254,36.133,30.762,14.648,-41.504
11.23,36.133,30.273,13.184,-23.438
13.672,38.574,35.645,20.02,61.523
14.648,38.086,33.203,19.043,37.109
9.277,33.691,30.762,13.184,37.109
4.883,34.668,30.273,14.648,68.848
8.789,35.156,28.32,14.648,49.805
8.301,30.762,26.367,12.695,17.578
3.906,30.762,26.855,14.648,62.012
11.719,32.227,26.367,15.625,46.387
10.742,31.25,24.902,12.695,28.809
3.906,30.762,23.926,9.277,38.086
10.742,31.738,24.902,12.207,-17.09
16.602,35.645,26.855,12.695,-12.207
16.113,37.109,24.902,13.184,-8.301
18.066,41.016,21.484,19.531,-16.113
15.625,42.48,20.02,18.066,28.809
17.09,38.086,20.508,11.23,13.672
19.531,37.598,21.973,10.254,-20.996
16.602,38.574,21.973,10.742,6.836
17.09,36.621,19.043,11.23,-6.348
16.113,35.156,18.555,15.137,-30.762
15.137,33.203,20.02,19.043,-10.742
12.207,34.668,21.973,14.16,41.992
6.836,32.715,24.902,16.113,-4.395
12.207,28.809,25.879,19.531,8.789
12.695,29.785,26.367,19.531,3.418
8.301,25.391,25.879,16.602,-59.082
5.371,22.949,22.461,13.672,11.23
3.906,24.902,22.461,14.648,68.359
6.836,28.32,21.973,10.742,49.805
3.906,32.227,21.484,10.742,26.367
3.418,35.156,21.484,11.23,20.508
3.418,34.668,21.973,9.277,19.043
3.418,30.273,24.414,7.324,16.113
0.488,27.832,25.391,0.488,38.574
3.418,27.344,20.508,-1.465,23.438
5.371,26.855,19.531,1.465,61.523
2.441,25.879,22.949,3.906,63.477
3.418,28.32,27.832,3.906,5.371
3.906,34.18,27.344,4.395,-4.395
0.488,28.809,25.391,5.859,20.508
-3.418,25.879,23.926,0,5.859
-0.977,28.809,23.926,1.465,39.062
7.324,29.785,24.902,7.324,20.996
6.836,30.273,26.367,3.906,0.488
-0.488,29.785,23.926,0.977,-11.23
-4.883,30.273,23.438,-2.441,20.996
-2.441,31.25,24.414,-1.953,58.105
-2.93,30.762,22.949,0,14.16
-5.859,33.203,25.879,0.977,56.641
-5.859,35.156,26.367,1.953,99.609
-7.812,33.203,26.855,2.441,94.727
-7.324,33.203,30.273,2.441,52.246
-1.953,41.992,26.855,0.977,39.551
4.883,53.223,25.391,2.441,59.57
7.812,54.199,27.344,9.766,104.004
6.836,51.758,24.902,10.742,82.52
7.812,50.293,26.367,10.742,46.387
9.277,53.223,27.832,9.766,42.969
5.859,51.27,31.25,10.254,7.324
2.93,43.945,32.715,9.277,39.551
2.93,42.969,30.762,4.395,38.086
6.836,41.992,33.203,10.254,31.738
10.742,39.551,31.738,14.16,26.855
8.301,41.016,31.25,17.578,34.18
7.812,41.992,32.227,20.996,36.133
11.23,39.551,33.691,18.555,-18.555
11.719,36.133,32.227,12.207,7.324
10.254,35.645,32.227,15.137,45.898
6.836,37.109,34.668,21.484,14.16
3.906,38.086,32.227,20.996,11.719
0,34.668,28.32,15.137,14.16
1.953,33.203,27.832,13.184,-50.781
4.395,34.668,31.25,14.648,-102.051
0,32.715,30.762,11.23,-9.766
1.465,29.785,27.344,10.742,79.102
4.395,30.762,25.879,8.301,38.086
0,33.203,22.461,4.883,-2.441
0.488,35.156,25.391,9.766,52.246
3.906,36.621,27.344,8.789,73.242
6.348,35.156,21.484,4.883,-16.602
6.348,36.133,19.531,4.395,-33.203
3.906,37.109,21.973,3.418,27.344
2.441,34.18,21.484,7.324,50.781
2.441,33.691,20.508,10.254,28.32
0.488,34.668,22.461,6.836,52.734
0,33.203,20.996,6.836,79.59
9.766,32.715,20.508,10.742,29.297
13.184,34.18,18.555,8.789,20.02
5.371,35.645,20.508,5.371,23.438
0.488,33.691,25.879,4.883,25.391
5.371,34.18,25.879,8.301,50.781
5.371,33.691,27.832,5.859,100.098
1.465,31.738,24.414,2.441,38.574
1.953,30.762,23.438,1.465,32.715
-2.441,28.809,24.414,1.953,51.758
-3.906,27.344,22.949,2.93,32.715
-3.418,26.367,22.949,2.441,39.062
0,25.879,20.996,5.371,30.273
0,27.344,24.414,4.395,44.922
-5.371,29.297,24.414,-2.441,24.902
-0.977,29.785,22.461,-0.977,-35.156
3.418,34.18,23.926,1.953,-25.391
5.859,36.133,24.902,2.93,-44.434
4.883,30.762,23.438,6.348,-9.766
2.93,30.273,23.438,9.766,92.773
4.395,32.227,23.438,12.695,-31.738
8.301,32.715,22.461,12.695,-83.984
11.719,33.203,25.391,13.184,-9.277
5.859,31.25,24.902,13.672,18.066
5.371,28.32,28.32,15.137,61.035
7.812,29.297,33.691,19.043,22.949
9.766,32.715,30.762,17.578,-41.504
5.371,29.785,32.715,14.648,20.508
1.953,28.809,34.668,16.113,56.152
3.906,28.809,34.18,19.531,2.441
0.977,31.25,33.691,16.113,36.621
-0.977,33.203,29.297,8.301,54.199
4.883,33.691,30.762,12.207,64.941
6.348,35.645,34.668,17.09,37.598
1.953,33.691,30.762,10.742,0
5.859,32.715,27.344,10.254,55.664
6.836,34.18,28.32,8.301,55.176
-0.977,33.203,28.32,4.395,35.156
-3.906,31.738,28.32,8.789,29.785
-3.906,30.762,25.879,4.395,46.875
-7.324,31.738,24.414,-1.465,-0.977
-5.859,31.25,24.902,0.977,-81.055
-6.836,26.855,22.949,-1.465,-7.324
-6.836,29.297,21.484,-3.906,24.414
-4.395,32.227,24.414,-1.465,26.367
-7.812,32.227,23.438,0,61.035
-9.277,29.785,20.508,-2.441,45.41
-1.465,29.785,20.508,-0.488,54.199
4.883,32.715,20.508,3.906,46.875
2.441,35.156,22.949,5.371,3.418
8.301,38.086,22.461,10.254,-24.902
16.602,39.551,19.531,15.137,-16.113
23.926,40.527,23.926,12.207,-3.418
31.25,38.574,27.832,12.207,-12.207
34.18,38.574,22.949,11.23,-60.547
34.18,37.109,21.973,12.207,-48.34
28.809,36.133,21.484,19.043,41.504
22.461,33.691,20.996,18.066,51.27
20.508,31.738,21.973,18.555,12.207
14.648,33.691,24.414,21.973,29.785
4.395,34.668,25.879,20.996,53.223
-0.977,33.203,21.973,20.02,71.777
-1.953,31.25,19.531,17.09,30.273
-6.348,32.227,24.414,13.672,58.594
-6.836,31.25,26.367,13.672,61.523
-4.883,29.785,23.926,10.254,-14.16
-2.441,31.25,24.414,6.836,47.363
0.488,31.25,23.438,1.953,61.523
-4.883,31.25,25.391,-4.883,41.992
0.488,32.715,26.367,-4.883,28.32
4.883,33.203,28.809,0,-14.648
0,32.715,29.297,1.465,43.945
-3.418,32.227,26.855,2.441,14.16
-4.883,32.715,28.32,0,7.812
-7.324,32.715,26.855,-3.418,6.348
-3.906,35.156,27.344,4.883,-9.277
-0.488,35.156,29.785,7.324,39.062
4.395,34.18,25.391,7.324,-11.23
9.277,35.156,24.902,13.184,29.297
11.719,36.621,25.879,21.484,60.547
15.137,36.621,21.973,24.414,-18.066
21.484,40.527,22.461,24.902,5.371
21.484,41.016,22.461,28.32,18.066
20.508,38.086,20.508,32.227,-13.184
22.461,37.598,23.438,38.086,-3.906
22.461,38.086,23.926,35.156,33.203
24.414,39.062,25.391,32.715,49.316
20.508,37.598,26.367,32.227,29.785
13.672,35.156,24.902,29.297,41.504
17.578,36.133,25.391,26.367,56.641
20.996,40.527,26.367,25.391,59.082
13.672,41.016,24.902,20.508,26.367
7.812,39.551,22.461,15.625,-4.395
9.277,40.039,25.879,16.602,53.711
8.301,40.039,25.391,14.16,33.203
4.395,37.598,20.508,9.766,28.32
-0.488,33.691,21.484,10.742,18.066
-2.441,36.133,24.414,9.277,-23.926
-1.465,39.551,26.855,4.883,11.23
-3.906,39.062,28.32,4.395,38.086
-2.441,39.062,27.832,2.93,40.527
-4.883,36.133,25.391,-3.418,45.898
-3.418,34.18,22.461,-0.488,13.184
2.93,35.645,24.902,5.371,29.297
3.906,37.109,29.297,7.812,51.27
6.836,36.133,28.809,10.742,22.949
16.602,35.156,27.832,15.625,56.641
21.484,39.551,27.344,19.043,42.969
23.438,40.527,26.855,20.508,11.23
29.297,40.527,27.344,24.414,45.898
31.738,44.922,26.855,25.879,63.477
33.203,44.434,26.367,26.855,12.207
29.785,38.574,25.391,25.879,-44.434
20.996,37.109,26.855,22.461,-22.461
20.508,36.621,28.809,22.461,28.809
22.949,36.133,29.785,24.902,-25.879
22.461,36.621,31.738,29.785,-48.828
24.414,36.621,28.809,29.785,-34.668
27.832,37.598,27.832,27.832,-28.32
22.461,37.109,29.297,26.855,47.852
19.531,37.109,27.832,21.973,23.438
25.391,38.574,27.832,19.531,0
20.996,41.504,28.32,20.508,46.875
15.625,42.969,26.855,16.113,41.016
11.23,41.504,24.902,4.395,44.922
10.742,39.551,26.367,-2.93,-11.719
8.789,41.016,30.762,-0.977,-7.324
5.859,40.527,27.832,-1.953,31.738
4.883,35.156,27.344,-2.93,-35.645
-0.488,34.18,30.762,-4.395,-1.465
-2.441,36.133,28.809,-5.371,-24.902
-5.371,34.668,29.785,-3.418,-54.688
-10.254,34.668,29.297,-7.812,-6.836
-11.23,36.621,27.344,-5.859,4.883
-8.301,36.133,30.762,2.93,-6.836
-2.441,34.18,35.156,2.441,23.438
1.953,33.203,36.133,5.859,23.926
2.441,34.18,33.691,9.277,16.602
9.277,35.645,30.273,9.277,69.336
18.555,40.039,29.785,16.113,-3.418
17.09,41.504,33.691,19.531,24.414
14.16,41.992,32.227,13.672,67.871
18.555,42.48,30.762,15.625,25.391
18.555,41.016,28.32,20.508,59.57
14.648,41.016,26.855,16.113,45.41
13.184,39.062,31.738,16.602,-1.953
9.277,38.574,30.273,20.508,-7.324
7.812,37.109,31.738,18.555,35.156
14.16,36.621,30.273,13.184,49.805
15.625,42.48,27.832,5.859,86.426
11.719,44.434,31.25,7.324,27.344
6.836,44.922,30.762,8.301,-36.133
4.883,45.41,29.297,4.883,15.625
7.324,44.434,28.32,2.93,-0.977
5.859,45.898,26.367,-0.977,4.395
2.93,44.922,25.391,2.93,20.508
4.883,42.48,25.391,2.93,17.09
1.465,41.992,25.879,-3.906,62.5
-2.441,43.457,26.367,-0.488,45.41
1.465,42.969,28.32,3.906,3.418
4.883,39.551,32.227,2.441,3.906
4.883,39.062,31.738,1.465,33.691
4.883,41.016,31.738,5.859,24.902
10.254,39.551,33.203,12.207,21.484
17.09,38.574,31.25,14.16,17.578
16.113,40.039,31.738,13.184,-23.926
19.531,41.504,34.18,14.16,-21.484
26.855,41.016,34.18,21.484,-8.789
32.715,43.457,35.645,26.367,13.672
34.18,46.387,35.645,26.367,46.387
26.367,41.992,37.598,26.855,117.676
22.949,39.062,39.062,26.367,83.984
21.484,38.574,37.598,22.461,-2.441
18.555,38.574,36.133,19.043,21.484
18.066,39.551,35.156,22.949,10.742
16.113,41.016,34.668,21.484,37.598
11.23,40.527,35.156,16.113,25.879
13.184,41.992,35.645,18.555,29.297
13.184,44.922,38.574,20.508,67.383
9.766,45.41,40.527,18.555,15.137
7.324,43.457,37.109,18.066,-16.602
9.766,43.457,33.203,19.043,34.668
5.371,41.504,32.227,12.207,75.195
-1.953,40.039,32.715,8.789,52.734
2.441,40.527,35.156,8.789,4.395
3.418,41.992,37.598,8.301,22.461
0.977,42.969,40.039,7.812,62.012
0.977,42.969,38.086,7.324,94.727
5.859,48.828,36.133,7.812,75.195
10.742,51.758,36.133,11.719,50.781
16.602,50.293,40.039,14.16,5.859
13.184,46.875,42.48,10.742,-35.156
15.625,51.758,44.434,16.602,13.672
14.16,49.316,41.504,18.066,6.836
2.93,39.551,35.156,11.23,-48.828
9.277,42.969,39.062,15.625,-16.113
7.812,41.992,43.945,16.602,90.332
6.348,43.945,44.434,16.602,-3.906
2.93,50.293,44.922,12.695,-47.852
-1.465,46.875,43.945,6.348,54.688
-1.465,47.363,42.48,3.418,36.133
-13.184,49.805,38.574,-4.883,46.387
-14.16,50.781,37.598,-5.371,26.855
-18.066,56.641,33.691,-10.254,-36.621
-26.855,59.082,34.18,-15.625,-49.316
-32.227,58.105,38.086,-17.09,18.066
-37.598,59.082,36.621,-22.949,17.09
-45.898,62.5,33.691,-33.203,18.555
-50.293,66.895,31.25,-42.969,89.844
-62.5,66.895,30.273,-54.199,76.66
-71.289,69.336,23.926,-65.43,40.039
-66.406,68.359,24.414,-64.941,62.5
-69.336,64.941,22.949,-66.406,48.34
-71.289,68.848,20.508,-62.988,30.273
-67.871,68.359,26.367,-59.082,95.215
-62.012,69.824,25.391,-61.523,92.285
-55.664,73.242,24.414,-55.176,23.926
-45.41,70.312,27.832,-38.086,1.465
-33.691,70.801,26.367,-27.344,-18.066
-22.949,71.777,25.391,-22.461,-16.113
-5.371,69.336,24.414,-8.789,37.109
6.836,68.848,23.926,1.465,33.691
14.16,70.312,21.973,10.742,-11.719
22.461,63.965,23.438,25.391,11.23
30.762,59.082,23.438,32.227,7.324
39.062,58.594,19.531,36.133,-7.324
47.852,56.152,20.02,41.992,23.438
53.223,54.688,23.438,45.41,26.367
53.223,53.223,24.414,51.758,11.719
53.711,53.223,26.367,54.688,35.645
59.57,52.734,23.926,48.828,54.199
64.941,50.781,21.484,51.27,4.395
60.059,47.363,27.344,57.129,21.484
59.57,46.875,28.32,60.547,31.25
65.918,47.363,22.461,61.035,-6.836
65.43,46.875,20.508,60.059,15.137
63.965,46.387,23.926,63.965,9.766
64.941,43.945,23.926,62.012,-1.465
61.035,44.922,20.02,57.129,3.418
53.223,48.34,20.508,55.664,-20.508
55.664,46.387,19.531,58.105,0
52.246,44.434,19.043,57.617,42.969
47.363,41.992,23.926,54.688,63.477
46.387,41.504,24.414,51.758,22.949
43.457,44.434,25.879,49.316,-18.066
41.504,45.898,26.855,47.852,52.734
42.48,44.922,26.367,41.016,52.734
43.457,45.41,28.32,34.668,9.766
43.457,44.922,28.32,35.156,1.953
46.387,42.48,29.785,37.109,-5.859
47.363,44.434,29.297,41.016,-20.02
49.805,45.898,28.32,43.945,-7.812
49.805,43.457,31.25,43.457,38.574
50.293,43.945,33.203,42.969,50.781
49.805,47.363,33.691,42.48,-21.484
46.875,49.805,34.668,46.875,-0.488
49.805,52.734,33.203,50.293,28.32
50.781,52.734,33.691,47.852,17.09
48.34,51.758,36.133,46.875,-36.621
47.852,51.27,37.109,49.805,25.391
43.457,50.781,37.598,48.828,79.102
39.062,51.758,39.062,44.922,-25.391
40.039,51.27,41.504,39.551,-14.16
41.016,49.316,43.945,38.086,42.48
32.715,50.293,43.945,30.273,54.199
22.949,50.293,40.527,22.949,9.766
18.066,49.316,37.109,23.926,-50.781
16.113,49.805,39.551,20.996,-54.688
13.184,49.805,41.504,18.555,-14.16
9.766,49.316,40.039,20.996,24.414
10.254,47.852,39.551,20.996,-2.93
8.789,48.34,38.574,16.602,2.441
7.812,49.316,42.969,20.996,47.852
9.766,50.293,45.898,22.949,105.957
13.184,48.828,42.48,18.555,72.266
13.672,46.875,44.434,21.484,6.836
11.719,49.316,44.434,26.367,-9.766
15.625,47.852,43.945,22.949,39.062
22.461,48.828,46.875,25.391,21.484
27.344,51.27,49.316,29.297,-24.902
28.32,50.293,50.293,27.832,38.574
32.715,50.293,49.316,30.762,68.848
35.156,49.805,45.898,33.203,35.645
37.109,47.852,43.945,32.715,24.414
38.574,46.875,45.898,37.109,-11.23
30.273,49.316,45.41,33.691,-1.465
29.297,51.27,45.41,27.832,17.09
30.273,49.805,48.828,33.203,56.152
25.879,47.852,46.875,29.785,89.355
24.414,47.363,42.969,26.367,61.035
21.484,48.34,41.504,23.438,4.883
20.02,49.805,39.551,21.973,-22.461
20.02,52.246,40.527,28.32,49.316
16.113,50.781,40.039,25.879,23.926
10.254,47.363,39.551,19.531,20.996
6.836,47.852,40.527,13.672,49.316
5.371,48.34,38.086,15.137,-7.812
10.254,47.852,35.645,13.184,8.789
11.23,46.875,38.086,7.324,27.832
1.953,47.363,40.039,8.789,25.879
-4.395,47.363,39.551,6.836,8.789
-4.395,47.363,39.551,7.812,24.414
-0.977,46.875,41.016,8.301,60.547
-3.906,42.969,43.945,7.812,60.059
-7.812,44.922,43.945,7.324,24.414
-3.906,48.828,40.527,2.441,-21.484
3.418,50.293,41.016,1.953,13.672
7.324,50.293,42.969,6.836,82.031
17.09,52.246,41.992,17.578,88.867
26.855,56.152,43.457,26.367,48.34
27.832,55.664,41.992,28.809,45.41
20.02,49.805,38.086,26.855,53.223
20.508,49.805,36.621,28.32,-16.602
27.832,54.688,39.551,38.086,13.184
28.32,49.316,36.621,35.156,62.5
30.762,42.48,34.18,25.879,56.641
32.715,46.387,35.156,24.902,98.633
22.949,47.363,32.715,32.715,122.559
20.996,45.898,30.762,36.621,-10.742
22.461,47.852,29.297,33.203,-74.707
14.648,45.898,26.367,15.137,-23.438
11.23,47.363,25.879,-5.371,-6.836
13.672,50.293,24.414,2.441,-26.367
8.789,48.34,24.414,9.277,7.812
10.254,45.898,27.832,13.672,11.23
10.742,41.992,32.227,17.578,9.277
12.695,42.48,32.715,21.484,0.977
16.602,47.852,34.18,15.137,-28.32
1.465,45.41,36.621,-3.418,50.781
-8.789,40.039,41.504,-7.812,9.766
-7.324,41.016,48.828,-7.812,-20.996
-10.742,42.48,51.27,-1.465,-34.668
-11.719,43.457,58.105,0,-43.457
-1.953,43.945,62.5,-1.953,28.32
-5.859,43.945,65.43,5.859,-10.742
-16.113,46.387,72.266,5.371,-38.574
-12.207,43.945,76.172,-9.766,-12.207
-6.348,42.48,83.008,-5.859,-30.273
4.395,47.363,86.914,3.418,-43.457
15.625,51.27,91.797,11.23,-11.719
15.625,54.688,101.562,26.367,40.527
10.742,51.27,106.934,26.367,27.344
17.09,50.293,108.887,21.973,15.137
19.531,55.176,113.281,25.391,53.711
12.207,54.199,118.164,19.531,52.246
13.184,52.734,121.094,19.043,32.715
16.602,53.711,121.582,21.973,44.922
14.16,53.223,123.535,19.531,26.855
12.695,53.223,124.023,17.578,50.293
7.812,53.223,120.605,15.137,41.992
4.395,53.223,122.559,11.719,39.062
5.371,54.688,121.582,0.977,75.195
1.953,53.711,117.676,-4.883,83.496
-1.953,50.781,115.234,-3.906,41.992
-2.93,49.316,118.652,-5.371,-4.883
-0.488,50.293,122.07,-5.371,18.066
3.418,52.246,120.605,-4.395,-1.953
-1.465,50.781,115.723,-8.301,-5.859
-5.859,51.27,110.352,-10.254,-12.695
-2.441,47.363,107.422,-10.742,8.301
-6.836,46.875,104.98,-9.766,43.945
-9.277,47.363,101.074,-6.836,18.066
-6.836,46.875,100.098,-3.418,-1.465
-1.465,48.34,103.027,-1.465,31.25
1.953,46.875,103.516,-0.488,17.578
-1.953,42.48,99.609,3.418,40.039
0,40.039,94.238,7.812,62.988
5.371,40.039,88.867,7.324,16.602
10.742,39.062,85.449,13.672,0.977
13.184,36.621,88.867,18.066,4.395
9.766,33.691,95.215,22.461,16.113
5.859,36.133,92.773,28.32,41.504
2.93,37.109,91.797,30.273,26.367
2.93,36.133,93.262,35.645,-19.043
3.906,35.156,92.285,33.691,-6.836
2.93,36.133,92.773,29.785,16.602
1.953,36.621,89.355,27.344,44.922
-2.93,38.086,86.914,24.414,44.434
-8.789,38.086,83.984,20.508,16.602
-7.812,35.645,86.914,16.113,60.547
-2.441,35.645,90.332,18.555,30.762
0.488,39.551,86.914,16.113,-17.09
-6.836,39.062,83.008,9.766,10.742
-2.93,36.133,79.59,15.625,37.109
-1.465,41.016,82.52,19.531,40.039
-9.766,41.992,84.473,15.137,28.809
-8.789,41.504,83.984,15.625,5.371
-6.836,42.969,85.449,16.602,44.434
-8.301,41.016,87.402,14.16,53.223
-9.766,40.039,83.984,8.789,62.988
-10.254,39.551,82.52,4.883,108.887
-14.16,39.062,86.914,3.906,52.246
-11.23,40.527,88.867,11.23,20.508
-6.836,40.527,85.449,14.16,20.508
-6.836,40.039,81.543,12.207,15.137
-3.906,41.504,81.055,19.043,4.883
1.465,42.48,82.031,22.949,58.105
4.883,45.41,85.449,28.809,70.312
6.348,48.34,83.008,34.668,1.953
11.23,45.898,79.59,32.715,-8.301
10.742,39.551,79.59,32.227,-14.16
3.906,37.109,78.125,35.156,18.555
6.348,39.551,78.613,31.738,72.266
10.254,39.551,80.078,30.273,63.477
9.766,39.551,79.102,26.855,76.172
9.277,39.551,74.219,25.391,44.434
6.836,39.062,67.383,27.344,9.277
3.418,39.062,67.383,24.902,6.348
2.441,39.551,70.312,27.344,36.621
0,39.551,66.895,23.926,53.711
-1.465,37.598,61.035,20.02,16.602
1.465,37.109,58.105,23.926,-19.043
1.953,37.109,55.664,20.508,-15.137
0.488,40.039,57.617,14.16,-25.879
0,41.504,55.664,13.672,-55.176
-1.953,41.016,50.293,9.277,-30.273
-2.93,39.062,48.34,3.906,-0.488
-6.836,36.621,48.828,1.953,65.918
-5.371,37.109,45.898,1.953,91.797
-4.883,38.574,40.039,0.977,56.152
-8.789,40.527,37.109,0.488,46.875
-10.254,41.016,33.691,-2.93,2.93
-7.812,42.48,33.203,-3.418,39.062
-3.906,43.945,27.832,0,53.711
-4.883,43.945,25.879,1.465,11.23
-0.488,46.875,29.785,6.348,-20.508
1.953,46.875,28.32,14.648,-4.395
5.859,43.945,29.785,16.602,42.969
11.719,45.41,29.785,17.09,30.762
12.207,44.922,26.855,20.02,16.602
19.531,45.898,24.414,23.438,5.371
16.602,47.852,24.902,24.902,-6.836
9.277,46.875,23.926,20.508,48.828
12.207,45.41,19.043,14.648,66.406
9.277,44.922,14.648,13.184,18.555
5.859,41.504,14.16,10.254,54.688
4.395,40.527,11.23,9.277,32.715
3.418,40.039,10.254,10.742,-20.996
5.859,39.062,11.23,7.812,-36.621
8.301,39.062,9.766,6.836,-59.082
3.906,37.598,9.766,6.348,7.324
1.953,36.621,12.695,4.883,33.203
2.93,39.062,15.137,5.371,17.578
2.441,40.039,12.695,6.836,58.105
-0.488,40.527,14.648,3.906,27.344
-4.395,36.621,14.648,1.465,-1.465
-3.418,31.25,10.254,2.93,11.719
-3.906,33.203,11.719,-1.953,15.137
-2.93,35.156,12.207,-4.395,3.418
-9.766,34.18,13.672,0,4.883
-12.207,32.715,16.602,4.395,52.246
-5.371,35.645,14.16,4.395,21.973
-6.348,37.109,12.695,0.488,-34.18
-6.348,34.18,14.648,-0.488,-30.762
-0.488,34.668,17.09,7.324,-23.926
2.441,38.086,18.066,12.695,35.645
0,37.109,15.625,10.254,30.762
2.93,35.645,15.137,10.254,7.812
3.906,36.133,12.695,13.184,59.082
4.883,36.621,16.113,15.625,25.391
11.719,38.086,19.043,18.555,31.738
10.254,39.551,18.066,17.578,56.152
5.859,36.621,17.578,18.066,39.062
4.883,35.645,18.066,19.043,27.344
8.789,36.133,20.996,20.02,5.371
13.184,36.621,17.578,21.484,9.766
12.695,34.18,16.113,20.996,11.23
14.648,34.668,18.066,19.531,21.484
12.207,39.062,18.066,20.996,10.742
8.789,37.598,16.113,16.113,15.625
12.207,39.551,16.602,18.066,83.496
9.766,41.504,13.184,17.578,57.617
5.859,40.039,10.742,11.719,52.734
6.836,42.48,18.555,15.137,57.617
9.277,43.945,22.949,15.137,20.996
8.301,41.016,17.578,10.254,-51.758
5.859,40.039,16.602,12.695,-44.434
12.695,38.574,21.484,17.578,19.043
14.16,39.062,20.02,9.766,-25.879
1.465,43.457,15.137,-1.465,16.113
-4.395,44.922,14.16,-4.883,64.941
-7.812,48.34,8.789,-6.836,60.059
-2.93,50.781,5.371,-4.883,94.238
4.883,52.734,5.371,0,15.625
3.906,52.246,3.906,0.977,18.066
6.836,50.781,6.348,1.465,74.219
5.859,55.664,4.883,0.488,41.992
4.395,57.129,0,2.441,-31.738
5.859,56.152,-0.488,5.371,-5.859
7.812,54.199,-1.465,7.812,18.555
9.766,51.758,-1.465,9.766,-13.672
9.766,52.734,-0.977,11.719,-32.715
13.672,52.246,0.488,8.789,-10.742
20.02,51.27,4.883,9.277,12.207
15.137,49.805,5.859,13.184,-4.883
8.301,47.852,5.371,10.254,7.812
11.719,48.34,5.859,15.137,-23.926
16.113,47.852,3.418,15.625,-41.016
10.742,41.992,5.859,8.789,7.324
3.906,40.039,12.207,8.301,31.25
3.906,40.527,12.207,8.301,43.457
2.93,38.086,8.301,2.93,45.898
-3.418,35.645,7.812,-1.465,16.113
-3.418,36.621,12.207,0,30.762
-1.465,35.156,9.766,-1.953,16.113
-5.859,37.109,6.348,-4.395,60.547
-7.324,37.598,3.906,-6.348,64.453
-5.859,37.109,3.418,-9.277,9.766
-3.906,38.086,6.348,-7.324,-17.578
1.953,38.574,9.766,-2.441,-35.645
5.859,41.504,10.254,-1.953,-32.715
0.977,39.551,11.23,6.836,-15.625
5.859,39.551,10.742,14.16,45.41
11.719,37.598,14.648,17.578,23.438
8.789,33.691,14.648,20.996,-7.324
12.695,34.668,12.207,20.996,11.23
11.719,35.645,11.719,17.09,3.906
5.859,36.621,11.23,14.648,23.438
11.23,36.621,10.254,22.461,51.27
13.184,34.668,9.277,18.066,45.898
14.648,36.133,11.719,18.066,-33.203
15.137,35.645,13.184,24.902,-30.762
15.625,37.598,13.184,22.461,71.289
19.043,40.527,12.695,20.508,40.527
14.648,39.062,16.602,19.043,-11.719
13.672,37.109,17.09,18.555,29.297
17.578,38.086,16.602,20.996,64.941
11.719,37.109,20.02,20.508,97.168
6.348,32.715,19.531,15.625,100.098
12.695,34.18,20.508,7.812,47.852
13.184,34.18,19.043,4.395,19.531
-0.977,32.227,19.043,3.906,18.555
-4.395,31.738,21.484,1.953,15.137
-1.953,27.832,19.043,0.977,-16.602
-2.93,26.367,20.508,3.418,31.738
-0.977,27.344,23.926,2.441,47.852
-3.418,27.344,21.484,1.465,-0.488
-2.441,28.32,22.461,5.371,-15.137
0.488,28.809,22.949,5.859,-3.418
2.441,28.32,20.996,-2.93,87.402
3.418,26.855,20.508,0.488,111.328
4.395,27.832,20.508,7.324,74.219
7.324,28.809,20.508,14.648,95.703
0.977,25.391,18.555,15.137,77.637
-3.418,23.926,20.508,7.324,-2.441
-3.906,23.926,22.461,10.742,24.902
-6.348,26.367,21.973,15.137,47.363
-4.883,25.391,18.555,15.137,-6.836
-0.977,24.902,18.555,11.23,17.578
-1.465,24.902,19.043,8.789,13.184
2.93,24.414,14.16,10.254,18.066
5.371,27.344,16.113,10.742,44.434
3.906,27.344,16.113,6.836,-28.32
6.836,24.414,11.719,3.418,51.758
4.883,22.461,11.719,5.371,54.199
-4.883,24.414,14.16,4.883,27.832
-6.348,25.391,16.113,0.977,66.406
-3.418,24.902,17.09,-0.488,37.109
-4.883,27.832,12.695,-1.465,71.289
-6.836,26.367,8.301,-4.395,67.383
-11.23,25.879,12.695,-5.371,7.324
-13.184,29.785,14.16,-8.789,-25.391
-7.324,28.32,11.23,-8.789,6.836
-6.348,24.414,11.719,-7.812,34.668
-9.277,24.902,12.207,-9.766,-47.852
-6.836,25.391,14.16,-8.301,-16.113
-9.766,22.461,16.602,-4.395,76.66
-13.184,21.973,15.625,-0.488,38.086
-10.742,20.508,14.648,-0.977,-11.719
-6.348,17.578,18.066,-1.953,46.387
-4.883,18.066,17.578,-4.883,93.262
-3.418,20.996,17.09,0.488,33.203
0.488,22.949,20.996,8.789,23.438
4.395,26.367,20.508,13.672,41.992
7.324,24.902,22.461,17.578,-13.672
