TP9,AF7,AF8,TP10,Right AUX
22.461,83.008,11.23,24.414,77.148
16.602,27.344,3.906,18.066,86.914
12.695,-43.945,1.953,6.348,3.906
1.953,-3.418,8.789,-0.488,1.465
16.113,24.902,8.301,8.301,25.879
25.391,18.066,7.324,8.301,-33.203
21.973,2.441,-2.441,8.301,4.395
15.137,-71.289,-9.766,11.719,0.977
10.254,-17.578,3.418,6.836,-21.973
14.16,65.918,0,5.371,6.348
15.625,77.148,2.93,9.277,23.438
22.461,53.223,8.301,15.137,12.695
14.16,-15.625,0.488,11.23,-16.602
2.93,-8.301,5.859,7.324,-2.93
14.648,32.715,11.23,14.16,32.715
28.809,69.336,6.348,20.02,31.25
21.484,60.059,-5.859,13.184,33.203
24.414,-8.789,-4.883,23.438,43.457
30.273,-22.949,2.441,34.18,71.777
11.719,25.879,0.977,6.836,100.098
7.812,60.547,0.488,-3.418,48.34
5.859,57.129,-1.953,-0.977,61.035
0.977,-14.648,-6.836,-2.441,45.898
-6.836,-26.367,-6.836,-8.789,0.488
-7.812,-16.602,-5.859,-11.23,3.906
10.254,18.555,4.395,11.23,10.742
15.137,83.008,11.23,18.555,0.488
13.672,-19.043,-4.883,1.953,27.344
10.742,-66.895,-15.625,-6.348,22.949
9.766,1.953,-3.906,1.953,15.137
19.043,25.879,0.488,8.789,1.465
20.02,96.68,5.371,16.602,23.926
16.602,-5.859,1.953,23.438,43.457
12.695,-92.773,-6.836,16.602,13.184
12.207,6.836,-2.441,8.301,9.766
27.832,49.805,0.977,13.672,24.414
31.738,59.57,2.93,13.184,25.879
22.949,11.23,-0.488,17.09,26.855
17.578,-26.367,1.953,12.695,56.641
15.137,-27.832,3.906,4.395,52.246
18.555,5.859,-7.812,12.207,4.395
27.344,33.203,-3.906,20.508,2.441
19.043,-24.414,6.836,21.484,45.41
13.184,-70.312,0.488,10.742,121.582
15.625,-38.574,-3.418,1.465,34.18
23.926,11.23,2.93,23.438,-49.316
34.668,62.012,8.301,42.48,31.738
29.297,-10.254,0,38.574,25.879
15.137,-62.012,-0.488,24.902,23.438
11.719,-51.27,1.465,11.23,0.488
16.602,-35.156,2.93,12.695,-66.406
19.531,34.668,13.672,25.391,-11.23
13.672,2.93,2.93,25.391,30.273
13.672,-87.402,-4.395,28.809,10.742
12.207,-99.609,0.488,23.926,26.367
7.324,-64.453,-2.93,15.625,-39.551
17.578,26.855,7.324,25.879,-46.387
24.414,40.527,12.695,27.832,41.016
15.625,-104.492,-15.625,11.719,26.855
5.859,-100.098,-17.09,0.977,10.742
14.648,-0.977,0.977,17.578,-11.23
23.926,20.508,4.395,21.484,-19.531
24.902,29.297,3.906,17.578,41.016
26.367,-14.648,1.953,20.996,67.383
12.695,-50.781,-9.766,9.277,69.824
23.438,-82.031,-18.066,10.742,32.715
39.551,-15.625,0.488,25.391,58.105
27.344,36.621,0,22.461,44.922
24.902,-92.285,-22.461,14.16,17.09
24.414,-116.699,-19.043,16.113,79.102
21.484,-22.949,-11.719,20.02,51.27
30.762,-2.93,-7.324,29.297,27.832
27.832,-5.859,-7.812,31.25,5.859
18.066,-55.664,-18.555,23.926,36.621
8.789,-102.051,-15.625,20.02,57.129
5.859,-106.445,-10.254,14.648,29.785
19.043,-79.102,-15.137,10.742,28.809
19.043,-71.777,-21.484,28.809,36.133
19.043,-152.344,-25.391,38.086,-0.977
17.09,-180.176,-20.508,12.207,-33.691
10.742,-83.984,-14.648,2.93,-13.672
25.879,-35.645,-9.277,18.066,-26.855
26.367,-10.742,-4.883,22.949,-14.648
17.09,-45.41,-4.395,25.391,51.758
8.301,-99.121,-6.836,20.996,10.742
3.418,-94.238,-13.672,8.301,-33.203
16.602,-42.48,-1.465,20.996,57.617
23.926,-1.953,3.418,32.227,91.309
20.996,-70.801,-7.812,35.156,30.273
18.555,-145.508,-12.695,39.062,20.02
19.043,-125.488,-16.113,27.832,2.441
27.832,-49.316,-10.742,32.227,51.27
32.715,6.836,8.301,40.039,52.734
23.926,-48.34,4.883,35.156,-2.93
11.23,-173.828,-16.602,25.391,30.762
3.906,-125.488,-5.859,20.996,18.555
16.602,-62.5,0.488,34.668,-21.973
26.855,-33.203,0,45.898,-9.277
18.066,-17.578,0.488,47.363,15.625
14.648,-68.359,-5.859,40.039,21.484
20.02,-84.961,-14.16,35.156,-22.461
26.855,-95.703,-24.902,31.25,-30.762
33.691,-23.926,-1.953,36.621,30.762
31.25,30.762,3.906,42.48,37.598
26.367,-90.332,-15.625,37.598,12.695
23.926,-109.863,-15.137,33.691,-0.977
23.438,8.789,0.488,36.133,32.227
27.832,48.34,2.93,42.969,64.941
32.227,59.082,-1.465,53.223,116.699
27.832,2.441,-7.812,48.828,95.703
26.855,-16.602,-7.812,42.48,69.336
30.273,-19.531,-8.301,44.434,54.688
27.832,4.883,-11.719,43.457,-30.273
28.32,27.832,-11.719,45.898,-43.945
22.949,-3.906,-9.277,40.039,-10.742
15.625,-13.672,-7.324,28.809,56.641
18.555,0.488,-9.277,30.273,48.34
35.156,41.504,-2.441,39.551,29.297
35.645,79.102,13.184,39.551,18.555
35.645,-7.324,8.789,41.016,63.477
30.273,-75.195,-11.23,29.785,79.102
19.043,6.836,-0.977,23.926,38.574
28.809,43.945,3.906,34.668,25.391
32.227,71.777,9.277,34.18,14.648
21.973,8.789,2.441,22.461,9.766
13.184,-51.27,-6.836,23.926,44.922
25.879,-40.039,-2.441,34.18,109.375
34.18,-0.488,1.953,32.715,69.336
31.25,76.66,10.254,35.645,19.531
36.133,13.672,-0.488,40.527,1.953
29.297,-53.223,-9.766,32.715,-16.602
28.809,-8.789,-5.371,29.785,31.25
37.598,8.301,-6.836,30.273,51.758
33.691,52.246,-8.301,25.391,11.719
25.391,20.508,-2.441,23.438,36.133
18.555,-77.148,-4.883,15.625,32.715
12.695,-41.016,2.441,13.672,7.324
16.113,-22.949,7.324,17.578,40.039
24.902,6.348,5.371,24.414,48.34
21.973,21.484,11.719,24.414,27.832
11.23,-50.293,7.324,14.648,6.348
9.766,-37.598,18.066,22.949,18.066
19.043,-16.113,25.391,27.344,-2.441
23.926,14.648,15.625,17.09,-47.852
29.297,25.879,21.973,26.855,-3.906
26.367,-9.277,20.996,32.227,112.305
15.137,-30.273,18.066,25.391,123.535
13.672,-32.227,18.066,19.043,23.926
26.367,17.09,23.926,18.066,32.227
29.297,14.16,19.043,28.809,79.102
26.367,-102.539,11.23,26.367,0.977
25.391,-119.141,13.184,18.555,-27.344
22.949,0,15.137,15.137,2.441
22.949,50.293,18.555,15.137,13.672
22.461,41.992,20.996,22.461,41.016
17.578,-21.484,4.883,24.902,-21.973
12.207,-15.625,0.977,18.555,32.715
14.16,-16.113,5.859,12.207,80.566
20.996,-19.043,7.812,13.672,-19.531
21.484,17.578,10.742,14.16,-23.438
18.066,-6.836,4.883,11.23,33.691
9.766,-80.566,1.953,14.16,36.133
5.371,-64.453,12.207,13.184,41.016
13.672,-5.859,17.09,6.348,49.316
28.32,46.875,20.02,10.742,39.551
24.414,-28.809,15.625,11.719,52.246
9.766,-119.141,-3.418,-11.23,53.223
9.277,-49.805,0.488,-4.883,11.23
21.973,-12.695,9.766,9.766,-9.766
26.855,9.766,13.672,13.672,64.453
24.902,-13.184,9.277,20.02,56.152
25.879,-30.273,8.301,13.184,17.09
11.23,-40.039,0.488,6.348,-8.301
19.531,-36.133,1.465,11.23,67.383
32.227,20.508,16.602,16.113,61.035
20.508,-16.113,3.418,7.324,-5.859
15.137,-59.57,-6.836,0.977,-10.742
12.695,-28.809,7.324,4.395,7.324
15.137,-32.227,7.812,0,-0.977
21.973,14.16,10.742,-3.418,-23.438
24.414,-1.465,13.184,10.742,-31.25
17.578,-94.238,-1.953,15.137,-41.016
3.418,-53.711,1.465,7.812,-5.859
6.836,-38.574,1.953,9.277,-14.648
14.16,-19.531,4.395,-0.977,-22.461
11.23,2.93,14.648,2.441,-4.883
0.488,-88.379,1.465,7.812,30.273
-7.812,-61.523,5.371,-2.441,73.73
5.859,14.16,10.254,0.488,65.43
14.648,37.109,2.93,3.906,43.457
14.648,40.039,3.418,5.859,45.41
12.207,-14.648,4.395,12.695,20.02
10.254,-34.668,8.301,8.301,12.695
14.16,-37.109,7.812,0.977,27.344
28.809,5.371,10.742,7.812,64.453
27.832,21.973,14.648,16.602,47.852
14.648,-31.738,15.137,16.602,-10.742
10.742,-48.828,6.836,7.812,69.824
11.23,-66.895,0,-1.465,85.449
19.043,-44.434,0,9.277,13.184
28.809,33.691,6.348,25.391,-31.738
24.902,-7.324,1.953,19.043,-60.547
15.625,-39.062,-3.906,11.23,1.953
13.184,-26.855,-2.93,8.789,20.508
16.602,-1.465,7.812,9.766,8.301
17.09,41.992,5.371,15.625,23.926
6.348,-15.625,-4.395,6.348,15.625
0.977,-37.109,0.977,-1.953,29.785
-4.883,-18.555,10.254,-3.418,53.711
0.977,-37.598,3.906,-0.977,15.625
6.348,11.23,-5.859,-1.465,25.391
-1.953,-10.742,0.488,-4.395,37.109
-2.441,-122.559,-3.418,-11.719,3.906
-2.93,-51.758,-1.953,-9.766,33.691
4.395,62.012,0.488,-3.418,28.809
12.695,77.148,5.371,2.441,-0.977
16.113,30.273,12.695,17.578,11.719
6.836,-34.18,1.953,9.766,-20.996
2.93,-26.367,-2.441,2.93,-22.461
12.695,-2.93,3.418,9.766,51.758
27.832,28.809,8.789,18.555,47.852
30.273,2.93,12.207,23.926,51.758
15.625,-70.801,-2.93,17.09,72.266
7.324,-41.504,-1.953,2.441,41.504
10.742,26.367,11.23,9.766,38.086
18.555,47.852,5.371,13.184,-6.348
23.926,44.434,8.301,9.277,30.273
14.648,0.488,4.395,10.254,91.797
-0.977,-16.602,8.789,-5.371,75.195
4.883,-19.043,6.836,-11.23,72.266
19.531,7.324,2.93,-3.418,17.578
15.625,27.832,7.324,-5.859,6.836
5.859,-12.207,4.883,-8.789,29.297
5.371,-60.547,2.441,-12.207,19.531
12.207,-54.688,4.883,-18.066,8.789
20.996,29.297,22.461,-3.906,16.602
20.996,66.895,25.879,12.695,15.625
17.09,16.602,18.066,14.16,-8.789
14.648,1.953,19.531,8.789,-23.438
14.16,6.348,19.043,7.324,4.883
23.926,23.926,25.391,21.484,-17.578
33.691,59.57,25.879,32.227,-12.207
23.438,-20.02,14.648,19.043,80.078
5.371,-54.199,12.695,0.977,30.273
7.324,12.207,15.625,4.883,-0.488
28.32,-0.488,13.672,16.602,18.066
28.809,34.18,21.484,19.531,-23.438
14.648,-2.441,14.16,7.812,-35.156
8.301,-43.945,14.16,2.93,13.184
3.418,37.598,29.297,2.93,67.871
10.742,60.059,25.391,0,94.238
20.02,76.66,26.855,7.812,96.191
16.602,34.18,25.879,12.695,100.098
14.648,-16.602,20.508,9.277,48.828
16.113,-9.766,18.555,10.742,11.719
26.367,2.93,22.461,14.648,54.199
37.109,26.855,22.949,21.484,47.363
35.645,-7.324,20.508,30.762,66.406
28.809,-42.48,14.16,22.949,47.852
27.344,7.324,18.066,19.043,23.926
34.18,31.738,28.32,26.855,54.199
34.668,82.031,30.762,34.668,71.289
33.691,40.039,25.879,46.875,44.922
27.344,-18.555,17.09,38.574,20.508
13.672,0.977,15.137,19.043,20.996
14.648,-5.859,16.113,9.766,33.203
23.438,42.48,19.043,12.695,43.945
27.344,46.387,22.461,22.461,62.012
20.996,-24.902,14.648,12.207,38.086
8.301,-36.621,11.719,-0.488,13.184
8.789,-37.109,11.719,7.324,22.461
21.973,11.719,18.555,17.09,-10.254
21.973,84.961,27.344,10.742,8.301
10.742,-31.738,-2.441,3.418,20.02
4.395,-56.152,-1.465,-2.93,21.484
13.184,22.949,22.461,3.906,20.02
17.578,50.293,20.508,13.672,18.066
17.09,48.34,27.344,18.066,13.184
9.766,10.254,29.785,15.625,71.289
2.93,2.441,24.414,11.719,106.934
14.648,-23.438,12.207,18.066,62.988
27.344,-27.832,8.789,27.344,40.039
33.691,27.832,23.926,33.691,-4.883
33.203,-23.438,21.484,21.484,-8.301
25.391,-69.336,10.254,10.254,21.973
23.926,-3.418,18.066,16.113,22.949
24.902,43.945,26.367,10.742,49.805
21.484,81.055,25.879,16.602,58.105
22.461,32.715,24.902,22.461,17.09
23.926,18.555,21.973,17.09,62.5
12.695,8.789,10.742,0.977,64.941
14.648,17.09,22.949,-1.465,-2.441
24.902,57.617,30.762,17.09,-8.789
21.484,-16.113,19.531,19.043,-17.578
13.672,-29.785,18.066,6.348,-5.859
11.719,21.973,22.461,1.465,58.594
15.137,30.762,26.367,2.93,98.145
23.926,69.824,29.785,11.23,63.477
30.273,15.625,19.531,18.066,25.879
23.926,-47.363,9.766,13.672,54.199
12.695,-28.809,14.648,8.301,11.23
34.668,-12.207,21.973,22.949,-22.949
47.852,26.367,24.902,31.738,-66.895
46.875,8.301,20.508,34.668,-44.922
39.062,-48.828,15.625,36.621,-69.824
23.926,-57.129,9.277,26.855,-81.055
31.738,-27.832,1.953,16.113,-19.531
34.668,56.641,5.859,19.043,-9.766
32.227,75.195,4.883,24.902,37.109
29.785,-52.734,-0.488,17.578,58.105
12.207,-64.941,7.812,9.766,54.688
12.695,38.086,16.602,7.812,36.621
23.926,65.43,14.16,13.184,23.438
22.461,58.105,16.113,16.602,23.438
16.602,22.949,12.207,15.137,19.043
7.812,11.719,6.836,6.836,60.547
11.719,-17.09,11.719,9.766,56.641
23.438,-12.695,5.859,20.996,54.688
34.18,21.484,19.043,22.461,50.781
37.109,-36.621,12.695,22.949,17.578
25.879,-41.016,-7.812,10.254,9.277
24.414,28.32,8.301,12.207,33.203
35.156,53.223,18.066,24.414,79.102
39.062,62.5,15.137,30.273,45.41
32.227,20.508,8.301,35.156,-10.254
16.602,2.93,9.277,26.367,-7.324
17.09,3.906,7.812,23.438,41.992
31.25,34.18,16.602,27.832,72.266
31.25,48.34,15.137,29.297,52.734
26.855,-29.785,-2.93,36.133,-10.254
19.531,-38.086,5.371,27.832,-17.578
10.254,2.93,13.184,11.719,61.035
25.879,21.973,5.371,14.16,62.5
42.969,73.242,11.23,19.043,0
31.25,19.043,11.719,25.879,62.012
12.207,-45.898,0.488,14.648,85.938
8.301,-0.977,7.324,0,9.766
17.09,23.438,7.812,18.555,12.695
28.32,57.129,8.301,29.297,-8.789
24.414,31.738,8.789,16.602,12.207
16.602,-5.859,9.766,19.531,63.965
10.254,-30.762,3.418,18.066,58.594
15.137,-43.945,-6.836,15.625,52.734
25.391,41.504,7.324,20.996,50.781
23.438,49.805,10.742,22.461,58.594
20.02,-55.664,0,13.184,41.016
8.789,-23.438,0.488,2.441,-8.789
15.137,6.348,1.465,5.859,-68.359
25.391,43.945,9.277,7.812,-62.012
24.414,49.805,12.695,14.648,-10.254
16.602,2.441,0.977,17.578,-40.039
11.23,16.113,4.395,15.137,20.996
25.391,3.418,7.324,24.414,75.684
32.715,-1.465,1.953,30.273,15.137
22.461,5.859,2.441,26.367,37.598
16.602,-9.277,0.977,22.461,43.945
9.277,-14.648,1.953,17.578,24.902
9.766,-51.27,4.883,13.672,78.613
25.879,-30.762,7.324,19.043,118.652
31.25,5.371,8.301,23.438,76.66
26.855,-101.074,7.812,13.672,37.109
22.949,-104.492,7.812,0.977,95.703
21.973,-71.777,0.977,0,46.875
23.438,-60.547,1.953,4.395,8.789
34.18,-16.113,4.395,9.277,28.32
32.227,-115.723,0,14.16,28.809
17.578,-124.512,8.789,11.719,47.852
20.508,-59.57,19.043,6.348,11.719
36.621,-51.758,18.555,9.766,27.832
36.621,-24.902,21.484,22.461,23.926
22.949,-52.734,28.32,28.32,11.719
18.555,-92.285,28.809,21.484,23.438
20.996,-97.168,18.555,21.484,25.391
23.438,-56.152,22.949,23.926,5.371
22.949,-24.902,31.25,25.879,-51.758
18.066,-29.785,19.531,24.902,-35.156
3.906,-45.41,10.254,6.836,14.16
4.395,-78.613,6.836,0,14.648
15.137,-27.832,12.695,0.488,28.32
18.066,78.125,25.391,3.906,8.301
20.02,25.391,19.531,19.043,20.996
17.09,-41.504,4.395,21.484,54.688
3.906,21.484,10.254,13.184,48.34
1.953,41.016,17.578,-1.953,34.18
15.137,97.168,16.113,-4.395,36.133
21.484,79.102,18.555,12.695,29.297
18.066,40.527,16.113,12.207,68.848
8.301,81.055,18.555,3.906,98.633
6.348,71.777,16.602,1.953,68.359
17.578,91.309,20.508,7.324,78.125
27.344,106.934,31.25,22.461,122.559
20.02,82.031,28.32,16.113,108.887
5.371,98.633,25.879,2.93,20.508
14.16,107.91,13.672,5.859,8.789
21.484,158.691,20.996,13.672,47.852
18.066,162.598,27.832,19.531,33.691
20.508,68.359,20.996,21.484,-25.391
19.043,96.191,25.879,19.043,-9.766
16.113,140.137,23.438,13.672,60.547
19.531,154.785,22.949,11.719,60.059
20.02,159.668,19.043,12.695,2.93
18.066,103.516,13.184,13.672,-15.137
15.137,89.844,16.113,9.277,-20.02
7.812,117.188,22.461,-6.836,37.109
20.508,139.16,20.02,6.836,82.031
27.344,163.574,16.602,18.555,23.438
21.973,68.359,10.742,13.672,17.578
20.996,43.457,3.906,6.348,63.965
14.16,123.535,15.625,7.324,65.43
17.09,119.141,11.23,11.719,9.277
25.391,160.156,11.719,12.695,7.812
20.996,150.879,11.719,11.23,31.25
6.836,94.238,1.465,-0.977,-37.598
7.324,50.293,9.766,-5.859,-33.691
18.066,96.191,25.879,0.977,46.387
20.508,181.152,20.996,10.254,45.898
16.602,144.531,12.207,12.207,-22.949
9.277,125,16.113,5.859,-24.902
5.859,132.812,22.461,0,-0.488
11.719,129.883,30.273,7.324,44.922
28.32,179.199,34.668,17.09,61.035
29.785,86.914,26.367,24.414,9.277
15.625,22.461,21.973,22.949,-6.836
12.695,95.215,22.461,15.137,31.25
26.367,73.73,22.461,9.766,50.293
32.227,81.055,28.809,13.672,9.766
26.367,74.219,25.391,21.973,14.16
20.02,23.926,21.484,8.789,-11.23
3.418,83.496,33.691,-7.812,-6.348
6.836,70.801,33.691,0.488,32.227
21.484,92.773,27.344,7.812,-12.695
14.16,131.348,28.809,2.441,-11.23
15.137,99.121,24.414,9.766,31.25
9.277,105.957,21.484,7.324,93.75
4.395,71.777,25.391,0.488,64.453
7.324,116.211,26.367,7.812,50.293
4.883,122.559,31.738,16.113,45.41
7.812,35.645,37.109,17.578,-44.922
5.371,19.531,21.484,16.113,-23.926
9.766,49.805,17.578,18.066,47.852
16.602,99.609,25.391,20.996,-6.836
21.484,122.559,28.809,33.691,-62.5
28.32,40.039,25.879,29.785,-7.812
21.484,21.484,20.02,19.043,0.977
18.066,49.805,22.461,16.113,-51.758
29.297,103.027,32.227,25.879,-3.906
33.691,136.719,30.273,36.133,19.043
21.484,74.707,29.297,25.879,-43.457
18.066,59.57,34.18,21.484,-37.598
20.996,24.902,26.855,23.926,23.926
26.855,24.902,30.273,29.785,36.621
41.016,126.953,45.41,28.809,20.996
45.898,44.434,39.551,24.902,12.695
31.738,-24.414,29.297,17.578,5.859
16.602,41.992,27.832,9.277,-45.898
19.531,59.57,35.645,12.207,-35.645
21.484,94.727,36.133,7.812,28.32
25.391,80.078,28.809,17.578,74.219
17.09,29.785,25.879,16.113,60.059
8.789,-7.812,16.113,3.418,-34.668
14.648,12.207,18.555,6.836,-45.898
26.855,63.477,29.785,19.043,33.691
29.785,-1.953,18.066,16.113,33.691
15.625,-49.316,14.648,5.371,-26.855
0.488,23.438,29.785,6.348,-5.371
6.836,33.203,23.926,2.93,42.969
19.043,45.898,20.996,3.418,32.715
19.043,13.672,22.949,8.789,36.621
13.184,-14.648,22.461,6.348,79.59
18.555,-21.973,20.996,7.812,92.773
22.949,-60.547,20.996,13.184,84.473
27.344,-26.367,29.785,21.484,30.762
31.738,-15.137,38.574,29.785,52.246
29.297,-60.547,42.48,27.344,83.984
18.555,-94.238,27.344,12.695,26.367
13.672,-84.961,26.367,12.207,20.996
27.344,3.418,44.434,20.996,51.758
36.133,1.953,36.133,21.973,48.34
25.879,-49.316,28.32,24.414,37.109
16.113,-40.039,32.715,17.09,15.137
18.555,-51.27,31.25,7.812,67.383
16.602,-32.227,29.785,8.301,69.336
13.672,-11.719,29.297,14.16,4.395
23.438,-83.984,25.391,22.461,-5.859
17.578,-92.285,22.461,10.742,-54.688
5.371,-74.219,25.391,0,18.555
15.625,-48.828,27.832,5.371,107.422
20.996,7.324,28.809,9.277,39.551
11.719,-71.289,25.879,17.578,11.719
1.465,-76.66,23.438,8.789,36.621
-1.953,-17.578,23.438,-2.441,22.461
11.719,-6.836,37.109,2.441,52.734
24.414,35.156,41.016,13.672,105.469
19.043,9.277,27.344,17.09,74.219
10.742,-29.785,26.855,11.719,40.527
2.93,-56.641,17.578,-0.488,56.641
7.324,-54.688,9.277,-3.906,62.988
18.066,-22.949,20.02,8.789,60.059
18.555,-88.867,15.137,16.602,8.789
13.184,-94.727,15.137,8.301,5.859
8.789,-17.578,29.785,11.23,77.637
15.137,-33.691,17.09,11.23,66.406
14.648,-6.348,10.254,5.859,43.457
12.695,9.277,18.066,12.207,63.965
10.742,-10.254,20.508,16.113,26.367
5.859,-43.945,11.719,8.301,-36.621
15.625,-63.965,5.371,-4.395,-34.668
20.02,-0.977,15.137,-0.977,-53.711
18.555,0.977,25.391,8.301,-44.922
19.531,-56.152,24.414,6.348,-9.766
14.648,-64.453,14.16,-5.371,-8.301
20.996,-39.551,19.531,0,7.812
26.855,28.32,32.227,18.555,15.137
19.531,-10.742,32.227,24.902,0.488
17.578,-89.844,26.367,11.23,12.207
19.043,-13.184,34.18,6.348,31.25
19.531,-19.043,32.227,12.695,6.836
20.02,6.836,40.039,9.766,30.273
20.508,37.109,38.574,14.648,79.102
20.508,-15.137,29.297,18.555,28.809
13.672,-49.316,29.297,12.207,-48.34
11.23,-89.844,26.367,14.648,-48.34
14.16,2.93,31.738,12.695,59.57
17.09,52.246,41.992,11.23,81.543
23.438,-55.176,33.203,12.695,55.176
14.16,-27.832,32.227,3.418,148.438
3.418,-7.324,35.156,4.395,96.191
10.742,-4.395,36.621,3.418,42.969
16.113,24.414,47.363,5.859,3.418
13.672,-0.977,43.457,11.23,-18.555
6.348,-23.926,29.785,-0.488,4.395
7.812,-66.895,21.973,-2.93,16.113
11.23,-23.926,25.879,6.836,34.668
8.301,-0.488,25.879,6.348,19.531
4.883,-14.16,21.484,1.953,34.18
9.277,10.254,24.414,7.812,45.898
8.301,-20.996,25.391,2.441,50.293
12.207,-46.387,21.484,1.465,19.043
16.602,20.996,25.879,10.742,18.066
6.836,-47.852,26.367,4.883,19.531
1.953,-84.473,19.043,-12.695,-21.484
-7.324,-5.859,8.789,-21.484,3.418
3.906,-10.254,9.766,-9.277,26.367
29.785,34.668,27.344,5.859,17.578
22.949,29.785,23.438,2.441,79.59
5.859,-21.484,10.254,3.418,105.469
5.371,-45.41,11.719,6.348,85.449
9.277,-43.945,10.742,-1.953,27.344
16.602,46.875,19.043,-3.418,-12.695
15.625,17.578,20.02,1.953,32.715
0,-55.664,10.742,-2.93,48.34
-4.883,1.465,17.578,-2.441,43.945
1.953,-0.977,11.23,-4.395,43.457
13.672,34.18,20.996,-2.93,24.414
19.043,37.598,23.926,14.648,36.133
13.672,1.465,6.836,7.812,16.602
13.184,-4.883,16.113,-4.883,-16.602
10.742,-46.387,19.043,1.465,-5.371
14.648,10.742,15.137,6.348,43.945
19.043,38.086,15.137,13.184,57.129
13.184,-52.734,12.695,9.277,30.762
5.371,-24.414,17.09,3.418,1.465
10.254,6.348,20.508,15.625,20.508
21.484,11.719,20.996,26.367,76.172
30.273,7.812,20.02,22.949,7.324
30.273,-12.207,27.832,23.438,-35.645
27.832,2.441,23.926,21.484,40.039
21.484,-35.156,9.277,13.672,-17.09
22.949,-33.203,7.324,13.672,-83.984
26.855,-6.348,9.277,16.113,30.273
21.484,-17.09,10.254,16.113,20.996
10.742,12.695,14.16,6.836,36.133
6.348,-5.859,15.625,-4.395,123.047
19.531,-15.625,25.391,-2.441,62.5
24.902,17.09,13.184,3.906,20.508
16.602,-57.617,-4.883,3.906,24.414
9.766,-42.969,12.695,5.859,36.621
11.719,14.648,22.461,4.883,60.547
15.137,-27.344,12.695,3.418,34.668
21.973,6.348,13.184,9.766,12.207
22.461,4.395,12.207,19.531,65.43
15.625,-52.246,13.184,20.508,23.926
10.742,-60.059,9.277,13.672,25.391
11.719,-34.668,6.836,11.23,73.73
23.926,44.922,18.555,9.766,39.062
28.32,-16.113,0,11.719,11.23
20.996,-64.453,0.488,7.324,23.926
14.16,10.742,20.996,11.719,27.832
21.973,-27.344,12.207,20.996,12.207
30.273,3.418,19.531,20.02,-19.531
33.691,39.062,18.066,18.066,21.973
30.762,19.531,15.137,18.555,53.223
13.184,4.395,15.625,8.301,54.688
14.16,-65.43,4.395,4.883,51.27
28.809,-9.277,20.02,16.602,12.695
30.762,25.879,24.902,27.344,13.672
20.996,4.883,13.184,21.973,59.57
13.672,5.371,11.719,18.066,41.992
19.043,-39.551,8.789,14.648,-0.488
26.367,-2.441,14.648,15.625,-54.199
27.832,9.766,18.066,27.832,-28.32
22.461,-24.414,19.043,30.762,17.09
14.16,-10.254,26.855,14.16,-1.465
17.09,-38.086,24.902,8.789,10.742
27.344,0.977,14.648,17.578,40.039
36.621,12.207,14.16,30.273,-13.672
32.227,-76.66,14.648,27.832,-41.016
23.926,-49.805,17.578,20.02,55.176
23.438,18.066,20.02,20.02,31.738
28.809,42.969,28.32,18.066,5.371
40.039,64.453,34.18,24.902,28.809
33.203,28.809,18.555,27.344,16.602
21.973,21.484,17.09,22.949,23.926
23.926,-16.602,22.949,21.973,1.465
28.32,0,30.273,22.461,0.488
30.762,52.246,27.832,25.391,13.672
29.785,33.691,23.926,28.32,28.809
26.855,-4.883,26.367,28.32,13.184
16.113,-36.133,21.484,18.066,24.414
15.625,1.953,26.855,15.625,98.633
21.484,58.594,38.086,19.043,43.945
22.949,28.32,33.691,26.855,-27.344
21.484,25.391,35.156,26.855,-2.93
13.184,15.625,36.133,24.414,24.414
16.602,2.441,28.32,23.926,50.781
26.367,40.527,33.691,23.926,17.09
27.344,14.16,29.785,20.996,29.785
27.832,4.395,26.367,13.184,35.645
25.391,-0.977,26.855,18.066,9.766
21.484,-43.457,20.02,9.277,25.391
31.25,15.625,30.273,12.695,66.895
37.598,26.855,33.203,30.762,102.539
20.508,-3.418,28.32,23.438,60.547
13.184,15.137,35.156,18.555,6.836
22.949,8.301,28.32,19.043,7.812
23.926,63.477,33.203,16.602,64.453
25.391,46.875,27.344,17.578,96.191
28.809,-68.359,13.672,20.508,32.227
12.695,-12.207,25.391,9.277,2.93
11.719,34.18,27.344,15.137,0
28.809,53.223,27.344,31.738,18.555
41.016,28.32,25.879,29.785,34.18
33.691,-43.945,15.137,19.531,10.254
21.973,9.766,19.531,19.043,-24.414
24.414,21.973,20.996,28.32,-24.414
30.762,29.297,17.09,21.973,-25.391
35.156,47.852,24.414,26.855,-10.742
25.879,28.809,26.855,41.016,36.133
18.066,28.809,18.555,22.949,13.184
11.719,-12.695,9.766,1.465,-13.672
21.484,13.184,19.531,18.066,34.668
41.504,46.875,26.367,30.273,29.785
25.879,15.137,17.09,9.766,16.113
11.23,-6.348,7.324,0.977,30.762
10.742,-26.855,5.859,3.906,35.156
17.578,9.766,17.09,3.906,76.66
24.902,52.246,26.855,11.719,-18.066
18.555,56.152,22.949,18.066,-37.598
12.695,54.688,17.09,6.836,13.184
6.348,10.742,13.184,4.883,-17.578
15.625,-2.441,24.414,12.695,-7.812
27.832,56.152,31.738,16.113,29.785
22.461,-11.23,19.043,18.555,-4.395
10.254,-18.555,18.555,13.184,9.277
6.348,13.672,18.066,13.184,0.977
10.742,-49.316,11.23,13.672,-8.301
14.648,39.551,22.461,18.555,57.129
19.531,16.602,12.207,21.484,29.785
11.23,-34.18,3.418,12.207,1.465
2.441,24.414,19.531,8.301,-16.113
13.672,-1.465,13.184,9.766,-59.082
22.949,38.574,14.648,16.602,-14.648
22.461,51.758,20.02,23.438,29.785
14.16,34.668,14.16,19.531,52.246
8.789,19.043,18.066,20.996,69.824
6.836,-39.062,7.324,15.625,44.922
12.695,-9.277,10.742,7.324,15.137
20.02,6.348,12.695,20.996,30.762
19.531,0.977,7.812,23.926,11.23
13.672,32.715,18.066,18.555,19.043
15.137,-2.93,13.672,23.438,58.594
32.227,33.203,17.578,23.438,45.41
40.039,23.926,18.066,25.879,49.316
25.879,-34.18,7.324,27.344,43.457
14.16,9.766,1.465,15.137,29.297
9.277,13.184,2.441,5.371,108.398
8.301,20.508,9.766,8.301,98.633
24.414,30.273,9.766,18.555,65.43
24.414,-2.93,2.441,20.996,37.109
13.672,-28.809,14.648,17.578,-16.113
15.625,-60.059,10.254,11.23,-1.953
18.555,-14.16,-0.977,-2.441,39.062
25.879,48.34,11.23,5.859,41.016
26.855,-44.434,10.254,17.578,67.383
19.531,-49.805,11.719,9.766,71.777
9.766,23.438,20.508,9.277,56.152
11.23,10.254,12.695,8.301,44.434
26.367,27.832,20.02,14.648,28.809
26.367,10.254,20.996,18.555,0
17.578,6.836,15.625,21.973,-24.414
16.113,-16.602,19.043,21.484,-24.902
20.996,-49.805,11.23,17.578,-1.953
30.762,7.812,15.137,30.273,26.367
34.668,-7.812,16.602,30.762,40.527
26.855,-36.621,16.602,17.09,-3.906
16.602,27.344,31.25,19.043,33.203
21.973,35.645,28.32,28.809,43.457
26.855,51.27,26.367,30.762,-14.648
21.973,65.918,29.297,28.809,40.039
21.484,47.363,34.668,32.227,61.035
19.531,15.625,31.25,30.762,41.992
15.625,2.441,14.648,18.555,35.156
29.785,53.711,29.785,16.602,58.594
36.133,3.418,33.691,22.949,76.66
22.949,-20.02,23.438,14.16,71.289
9.277,35.645,31.25,10.254,47.852
8.301,6.348,30.762,15.137,0.488
18.066,64.453,32.715,17.09,102.051
25.391,37.598,29.297,21.973,99.121
19.531,-3.418,34.668,21.973,53.223
11.23,17.578,35.156,20.508,37.109
8.789,-20.996,22.461,15.137,-45.41
20.996,34.668,33.203,21.973,-14.16
35.645,31.25,30.762,37.598,-21.484
30.762,9.766,28.809,37.598,-39.551
18.066,16.113,26.367,28.32,45.41
19.531,-7.324,17.578,27.344,99.609
35.156,49.805,25.391,32.715,83.496
45.41,51.758,28.32,36.621,62.988
40.039,-22.461,23.438,33.691,67.871
33.203,23.438,27.344,28.809,35.645
27.344,40.527,30.273,27.344,34.668
24.414,39.062,26.367,26.855,72.754
36.133,46.875,22.461,27.832,54.688
31.738,41.016,19.043,20.996,36.621
16.602,58.594,18.555,12.695,35.156
8.301,0.977,14.16,12.207,4.395
14.16,-22.461,18.066,15.137,44.434
24.902,28.809,31.25,26.367,55.176
20.02,-0.488,20.996,21.484,45.41
9.766,3.418,12.695,3.906,-9.277
2.441,39.062,12.207,-1.953,-43.457
9.766,21.973,15.137,0.977,-20.996
25.879,65.43,30.273,16.602,17.09
30.762,53.223,36.621,40.039,33.691
42.969,29.297,35.156,58.594,13.184
22.461,16.113,20.02,25.391,5.859
5.371,-0.488,26.855,2.441,31.738
21.484,34.668,26.855,14.16,40.527
20.02,43.945,14.648,8.301,27.832
24.902,53.223,16.602,9.766,68.359
21.973,56.641,13.184,4.883,80.566
15.625,26.367,13.672,0,64.941
28.809,75.195,19.531,-1.953,51.27
34.668,44.922,16.602,-2.93,64.453
31.25,19.043,4.883,-6.348,50.293
23.438,64.941,7.812,-22.461,-20.996
22.949,39.551,0.977,-22.461,-18.555
29.297,73.73,3.418,-21.484,1.465
30.273,92.285,2.441,-26.367,-4.883
31.738,83.008,-1.953,-22.461,4.883
16.602,45.898,0,-29.785,2.441
2.441,6.348,-11.719,-39.551,-12.207
28.32,67.383,-1.465,-28.32,10.254
45.41,97.168,5.371,-20.02,45.41
38.086,61.035,-6.836,-17.09,18.555
33.203,115.234,2.93,-26.367,8.301
30.762,117.188,9.277,-30.273,90.332
40.527,112.305,12.695,-14.16,94.727
53.711,114.746,11.23,2.441,71.289
45.41,96.191,6.348,4.883,65.43
37.598,92.773,11.23,1.465,35.645
37.598,55.664,4.395,4.883,61.035
43.945,44.434,-0.488,9.277,82.031
52.734,62.5,11.719,19.043,20.996
47.852,70.801,21.973,20.996,3.418
31.738,92.285,24.902,9.766,-5.859
28.809,54.688,20.996,6.348,-26.367
33.691,71.289,29.297,8.301,-35.645
40.527,121.582,24.902,13.184,18.555
42.48,105.957,14.16,19.531,70.312
36.133,90.332,13.184,17.578,19.531
37.598,59.082,9.766,10.254,10.254
41.504,56.152,4.395,8.789,61.523
49.805,88.867,9.277,12.695,69.336
51.27,57.129,18.066,22.461,57.129
40.527,47.363,24.414,21.484,34.18
32.715,64.453,22.949,12.695,85.938
35.645,41.504,20.02,19.043,82.031
41.504,77.637,26.855,28.809,64.453
41.992,78.613,32.227,24.414,83.984
31.25,42.969,18.066,15.625,50.293
20.508,29.785,16.602,23.438,16.113
22.949,11.23,28.809,25.391,10.742
35.156,58.105,32.715,22.949,6.348
36.621,18.555,20.508,20.996,21.973
29.297,-20.02,20.996,16.113,-12.695
37.598,15.137,34.18,32.715,-20.508
38.574,-0.977,33.691,35.156,-13.672
28.32,85.938,39.062,15.137,-18.555
27.832,65.918,34.18,14.16,36.133
29.297,22.461,38.574,24.902,76.172
15.625,83.008,44.922,6.836,43.457
14.16,38.574,31.738,-8.301,-13.184
29.785,66.406,29.785,2.441,27.832
37.109,78.125,30.762,2.93,45.41
30.273,61.523,38.574,4.395,29.297
26.367,85.449,38.574,12.207,62.012
31.738,29.297,27.344,4.883,43.945
32.715,9.766,32.227,9.277,9.766
35.156,29.785,37.598,19.531,-4.395
36.621,65.43,48.828,20.508,-19.043
29.297,94.727,46.387,16.113,-20.508
25.879,40.527,28.809,16.113,-10.254
28.32,49.805,32.227,20.02,-45.898
33.203,89.355,36.133,15.137,0.977
33.203,51.27,31.738,15.137,62.012
21.484,81.543,35.645,19.043,107.422
9.277,66.406,30.273,9.766,70.801
22.949,53.711,26.855,8.301,5.371
40.527,63.965,29.785,23.438,-14.16
36.621,52.246,31.738,23.438,-37.598
23.438,75.195,27.832,20.02,12.695
16.602,60.059,23.438,15.137,16.113
25.391,65.43,26.855,13.672,15.625
30.762,118.652,30.273,6.836,74.219
30.273,39.551,28.32,13.184,-8.301
26.855,57.617,37.109,14.648,-15.137
20.996,91.309,24.902,7.324,25.879
21.484,42.48,22.949,7.812,2.441
27.344,72.266,29.785,11.719,-19.531
25.879,83.008,24.902,15.625,-63.477
23.438,82.52,30.762,18.066,20.996
24.414,10.742,29.785,20.02,36.621
23.438,-45.41,20.02,14.16,-6.836
30.762,15.137,23.926,12.207,32.227
26.367,66.895,32.227,15.137,114.746
22.461,53.711,33.203,14.648,57.617
25.879,26.855,30.273,14.16,-15.137
22.461,-2.441,22.461,7.812,21.484
31.25,30.762,23.438,4.395,1.465
31.738,37.109,24.902,9.277,33.691
29.297,24.414,33.203,13.672,43.457
24.902,19.531,36.133,12.207,-13.184
22.461,-3.418,27.832,15.137,32.227
28.809,6.348,30.273,10.254,84.473
33.691,-1.465,34.668,6.348,8.789
34.668,-53.223,35.645,15.137,32.715
16.113,-17.578,37.109,5.859,65.43
9.766,15.625,38.086,-4.883,21.484
17.09,29.297,39.062,-0.977,-23.438
31.25,50.781,46.387,20.996,-39.062
32.227,45.41,41.504,31.738,6.348
16.602,42.969,32.715,16.113,7.324
11.23,-0.488,35.156,16.113,4.883
19.531,13.672,36.621,22.461,21.484
28.32,31.738,30.273,26.367,19.531
23.438,17.578,24.902,32.227,67.871
18.066,1.465,28.32,20.02,29.297
22.949,-5.859,30.762,14.648,-0.488
21.484,30.762,31.738,17.09,54.199
18.555,59.082,34.18,10.254,33.203
18.066,-4.883,20.02,-4.883,2.93
7.324,-6.348,20.508,-6.348,-9.766
7.324,29.785,23.438,-9.766,16.602
22.461,48.828,15.625,-19.043,33.691
33.691,65.43,18.066,2.441,8.789
32.227,76.172,22.949,18.555,44.922
21.973,62.988,15.137,7.324,20.02
13.184,-6.348,5.859,-2.441,-29.297
15.137,-14.648,12.695,0.977,-5.371
20.02,69.336,24.414,6.836,100.586
31.738,33.203,18.555,20.02,113.77
34.668,19.531,19.043,22.461,5.371
17.578,76.66,24.414,18.555,-5.859
18.066,40.527,15.625,20.508,8.789
32.227,69.336,15.137,19.531,28.32
31.25,83.008,18.066,18.066,62.012
24.902,45.898,19.043,16.113,61.523
20.02,29.785,19.043,17.578,22.461
20.02,-8.301,10.742,17.578,-30.762
29.785,-1.953,15.625,28.32,-62.5
36.621,-6.836,18.555,28.809,-14.16
28.32,-3.906,14.648,17.578,-14.16
18.555,71.289,30.273,17.09,9.277
18.066,24.414,25.391,10.254,-1.465
20.996,40.039,18.066,2.441,31.25
38.086,63.965,23.438,16.113,86.426
36.133,51.27,28.32,17.09,45.898
21.484,38.574,26.367,14.648,48.34
19.043,-22.949,14.16,6.348,-2.93
25.391,2.93,22.949,1.465,-30.273
36.621,23.438,25.879,15.625,-41.016
33.691,6.836,25.391,13.184,-42.48
30.273,30.273,34.18,14.16,31.738
23.926,11.23,32.715,16.602,-22.949
21.484,39.551,35.645,10.742,-57.617
30.762,51.758,36.133,20.508,-20.02
29.297,48.828,31.738,31.25,0
22.949,77.637,34.18,22.461,29.785
19.043,25.879,29.297,11.719,42.48
20.508,20.996,27.832,3.418,30.273
27.832,46.387,31.25,11.23,55.176
22.461,44.922,29.785,13.672,79.59
11.719,61.523,28.32,11.23,75.684
15.625,0.488,21.484,12.207,52.246
11.719,-5.371,20.508,2.93,29.785
18.555,78.613,32.227,11.719,47.852
22.461,49.805,30.273,15.625,22.949
9.277,75.195,28.809,15.137,25.391
-1.953,149.902,33.691,13.672,19.531
8.301,132.812,28.809,7.324,9.277
26.855,158.691,36.621,19.043,27.344
15.625,174.805,38.086,10.254,13.184
6.348,191.895,38.086,-7.812,50.781
-4.395,144.043,29.785,-17.09,59.082
-23.438,88.867,21.484,-20.996,16.602
-16.602,131.348,22.461,-18.066,17.09
-19.531,125,12.207,-44.434,67.871
-34.668,131.348,25.391,-61.523,53.223
-47.852,207.52,44.434,-60.059,41.992
-57.617,155.273,21.973,-67.871,87.402
-47.363,155.273,20.996,-58.594,69.824
-65.43,178.223,41.016,-67.871,43.945
-106.934,165.527,43.945,-110.352,29.785
-118.652,130.859,37.598,-113.281,14.16
-111.816,105.469,38.086,-112.793,84.473
-116.699,102.051,41.016,-135.742,69.336
-121.094,64.941,43.457,-131.836,-12.207
-126.465,35.645,46.875,-128.418,15.137
-146.973,32.227,46.875,-154.785,51.758
-155.762,34.18,48.34,-167.48,18.066
-162.109,90.332,52.734,-179.688,-32.715
-160.156,98.145,54.688,-178.223,26.367
-159.18,79.59,60.547,-166.016,59.082
-175.781,151.367,59.082,-180.664,42.969
-173.828,108.887,53.223,-187.988,17.578
-162.598,132.812,59.57,-173.828,-15.625
-152.344,184.082,53.223,-162.109,58.594
-142.578,175.781,51.27,-157.227,86.914
-147.949,178.711,48.34,-156.738,33.691
-151.367,121.582,43.457,-159.668,64.453
-141.113,141.602,41.016,-155.273,73.242
-118.164,162.598,35.645,-131.348,57.617
-104.492,52.246,28.809,-114.258,49.316
-106.934,73.242,27.344,-119.629,41.016
-104.98,83.496,25.391,-110.352,99.609
-97.656,18.066,26.367,-93.262,84.473
-69.824,33.691,26.855,-91.309,8.301
-56.152,36.133,18.555,-72.754,-80.078
-56.152,27.832,16.602,-51.27,-75.195
-50.781,18.555,18.555,-43.457,-21.484
-34.18,38.574,13.672,-31.25,-6.348
3.418,31.738,9.766,-7.812,19.043
22.461,-26.367,6.348,7.812,12.695
29.297,6.836,7.812,12.207,20.996
33.691,72.754,15.137,21.484,23.926
40.527,16.602,5.859,42.969,28.809
51.758,16.602,11.719,47.363,53.711
65.43,60.059,16.602,52.734,59.57
74.707,107.422,14.16,71.289,60.059
69.824,86.914,13.184,73.242,62.988
64.453,11.23,-9.766,62.5,7.812
79.102,42.48,-4.395,70.312,-1.953
91.797,76.172,3.418,83.496,-0.977
89.355,37.109,-6.836,88.867,-41.504
88.867,0.488,-1.953,88.379,27.832
88.379,-56.641,-5.859,80.566,46.875
96.191,-9.277,0,86.426,-23.438
99.609,6.348,4.883,106.445,21.973
94.727,-12.695,-0.977,100.098,99.609
95.703,51.758,6.836,91.797,64.453
94.238,3.418,2.441,101.074,25.391
98.633,-13.184,2.441,104.004,5.859
114.746,15.625,9.277,115.723,24.902
114.258,45.898,10.742,124.512,66.895
104.492,35.645,6.836,117.188,66.406
97.656,-60.547,-0.977,112.305,57.617
104.004,-34.668,11.23,112.793,58.105
117.676,-5.859,13.672,125,41.504
108.398,-63.965,7.324,131.348,-30.273
99.121,5.371,21.973,108.398,-40.527
98.145,7.324,27.344,103.516,32.227
94.238,-11.23,18.066,110.84,105.957
100.586,0.488,14.16,110.84,79.102
98.145,7.324,18.066,109.375,83.008
85.449,-4.883,14.648,102.051,42.969
83.008,-36.621,8.789,93.75,41.992
85.938,-33.203,12.695,88.867,67.871
98.145,-42.969,21.973,99.121,14.648
104.492,2.441,25.879,109.375,-27.832
93.75,82.031,32.227,108.398,52.246
85.938,21.484,20.996,104.492,21.973
91.309,-32.227,17.578,95.703,-30.762
101.562,18.555,30.273,103.027,58.594
106.445,10.254,23.926,104.004,25.391
98.633,50.781,28.809,91.797,0
90.82,76.172,34.18,91.797,38.086
87.402,9.766,30.762,80.566,26.367
86.914,34.18,30.762,75.684,2.441
86.914,49.316,31.738,84.473,-18.066
83.984,32.227,35.645,84.961,-14.648
69.824,20.996,33.691,75.684,20.996
63.965,26.855,33.691,69.824,43.945
73.242,75.195,41.504,72.754,36.621
78.613,18.555,29.785,72.754,23.926
70.801,8.789,23.438,52.246,28.809
62.5,94.238,34.668,47.363,66.895
58.594,19.043,32.715,49.805,31.738
62.5,38.086,37.109,51.758,1.953
71.777,90.332,35.645,54.688,0.488
66.895,93.75,33.691,54.688,-28.809
56.152,92.773,35.645,50.781,52.734
59.082,-1.953,26.855,46.875,52.246
64.453,13.672,32.715,53.711,22.461
69.824,45.41,37.598,56.152,20.508
67.871,22.461,31.25,54.199,-6.348
62.012,104.98,43.457,54.199,26.367
52.734,69.336,38.086,53.711,49.316
58.105,46.387,27.344,57.617,33.691
71.777,67.871,37.109,61.523,27.344
65.43,91.797,40.527,62.012,45.41
61.523,49.805,23.438,60.547,32.715
55.176,-42.969,21.484,58.105,-44.922
51.27,-9.766,33.691,54.688,-46.875
63.965,-12.695,37.109,62.012,38.574
62.012,-26.855,41.016,64.453,62.012
52.734,30.762,39.062,62.5,-20.02
44.434,14.648,28.32,53.223,-35.645
34.668,-9.277,23.438,25.879,18.066
46.387,4.395,25.391,28.32,28.32
55.664,20.996,27.344,45.898,23.926
46.875,53.711,35.645,42.48,3.906
40.527,10.742,29.785,38.086,5.859
40.527,-7.324,29.785,32.715,21.484
47.363,35.156,41.016,39.062,28.32
41.992,49.316,43.945,39.062,34.668
35.645,28.809,38.086,39.062,25.391
28.32,-14.16,36.133,36.133,3.418
29.785,-6.836,37.109,26.367,-1.465
35.645,59.082,32.715,30.273,9.277
31.738,0.488,28.32,26.855,25.391
24.414,2.93,33.691,22.461,45.41
13.184,76.172,40.039,12.695,82.031
20.508,25.879,36.133,20.508,67.383
34.18,39.551,26.855,25.879,6.348
52.734,63.477,12.695,32.227,-20.508
91.797,89.844,20.508,79.59,14.16
62.988,59.082,33.203,71.289,61.523
0,-56.641,25.391,17.578,42.48
-13.672,-35.156,33.203,1.953,43.945
-3.906,9.277,48.34,9.766,38.086
-19.531,7.324,49.316,-4.883,16.113
-38.086,12.207,62.012,-15.625,-0.977
-50.781,-60.059,62.012,-13.184,-24.414
-67.383,-53.711,53.711,-21.973,7.812
-61.523,-76.66,65.918,-20.508,56.152
-63.965,-87.402,66.406,-15.625,67.871
-67.383,-22.461,62.012,-7.812,36.621
-71.777,-83.008,62.012,-3.418,-12.207
-70.312,-83.496,67.383,-1.465,11.23
-51.27,-101.074,63.477,4.395,28.32
-41.992,-113.281,56.152,14.16,3.418
-44.434,-17.09,61.523,20.02,11.23
-43.457,-19.043,56.152,20.996,82.031
-39.062,-66.406,36.133,19.531,68.359
-22.461,-80.566,31.738,27.832,-10.742
-19.531,-32.227,41.016,38.086,-19.531
-21.973,-8.789,36.621,41.016,-26.367
-19.043,-68.359,28.809,36.133,-79.102
-13.672,-60.059,33.691,27.344,-19.043
4.395,-19.531,43.945,31.25,88.379
3.418,-27.344,45.898,37.598,32.715
-7.812,-35.645,39.551,32.715,3.418
-7.812,-44.922,36.133,32.715,72.266
-7.812,-35.156,28.32,28.32,36.133
9.277,4.395,28.809,33.203,-10.742
23.926,-30.273,34.668,41.016,0.488
15.137,11.23,41.016,31.25,17.578
9.766,73.242,35.156,22.949,30.762
14.648,11.719,32.227,26.855,39.062
25.391,22.461,35.645,34.18,37.109
37.109,84.961,34.18,35.645,16.602
33.691,105.469,34.18,33.691,14.648
28.809,69.824,30.273,39.551,51.758
27.832,-5.371,21.484,44.922,70.801
31.25,11.23,26.367,38.574,23.926
41.504,83.496,39.551,49.316,39.551
41.016,99.121,41.504,53.711,28.809
34.668,75.684,36.621,50.293,34.18
28.32,20.02,20.996,43.945,76.172
30.273,30.762,18.066,38.086,25.879
39.062,12.207,28.32,38.086,50.293
33.691,11.23,30.762,34.18,71.289
21.484,82.52,35.156,22.949,64.453
14.648,16.602,27.832,22.949,77.637
17.09,12.207,22.949,29.297,-2.93
23.926,-0.977,23.438,26.855,-10.742
24.414,27.832,29.785,25.879,48.828
21.484,98.145,37.598,27.344,-8.789
11.23,55.664,30.762,19.531,-3.906
14.648,38.086,28.32,13.672,-12.207
26.855,49.805,37.109,26.367,-32.227
28.32,101.562,47.363,35.156,52.246
27.344,103.027,47.363,32.227,57.129
12.695,26.855,33.691,21.484,-31.738
6.836,17.09,26.855,13.184,-43.457
22.949,22.949,40.527,24.414,11.719
24.414,23.926,46.387,28.32,-6.348
14.16,15.625,38.574,25.879,-30.762
7.324,-22.461,39.062,33.203,-9.277
14.648,-19.531,38.086,32.227,-7.812
22.461,31.25,40.527,23.926,20.508
27.344,63.965,43.945,27.832,27.832
24.414,84.473,35.645,26.367,0.488
12.695,49.316,26.855,22.949,12.207
14.648,35.645,35.156,25.391,39.062
33.691,40.039,33.203,36.133,40.527
42.48,54.688,37.109,45.898,43.945
30.762,108.398,43.457,41.504,78.613
15.625,45.898,29.785,32.227,1.953
14.16,-23.926,20.508,21.973,-13.184
20.02,25.391,25.879,15.137,33.203
25.391,15.625,27.344,24.902,34.18
18.066,33.691,30.762,19.043,63.965
1.953,115.234,36.621,10.742,37.109
0,75.195,31.738,17.09,9.277
13.672,59.082,33.691,21.973,12.695
23.438,81.055,39.551,20.508,-22.949
17.578,115.234,40.527,20.02,19.531
11.719,79.102,37.598,15.137,11.719
9.766,27.832,29.297,7.324,-6.836
16.602,60.059,36.133,18.555,34.18
22.461,20.996,32.715,17.09,33.203
15.625,47.852,34.18,9.277,47.852
13.184,116.211,41.016,21.973,62.988
11.719,37.598,41.016,20.996,8.789
16.113,34.18,41.992,8.301,-16.602
30.273,57.129,33.203,12.695,9.766
39.062,90.332,25.879,25.391,45.41
38.086,106.934,24.902,25.879,-16.113
6.836,59.57,35.156,5.371,8.789
3.906,54.688,37.598,-4.883,32.227
29.297,92.773,39.551,17.09,17.578
28.809,118.164,39.062,21.973,33.691
25.391,83.496,32.715,9.277,18.066
20.02,43.945,21.973,11.23,50.781
16.113,78.613,27.344,13.672,38.086
30.762,76.66,33.203,22.461,-11.23
32.227,96.68,30.762,27.344,6.348
28.32,137.207,34.18,25.879,22.949
22.949,83.496,31.25,22.949,24.902
17.09,55.664,27.344,16.602,23.926
27.832,38.574,32.227,24.902,20.996
31.25,34.18,32.715,32.227,71.289
23.438,100.586,39.062,26.855,56.641
20.508,77.637,41.016,26.367,5.859
19.531,-0.977,25.879,26.367,5.859
28.32,18.066,27.344,32.227,-13.184
34.668,32.227,28.809,29.785,25.879
32.227,82.52,33.203,30.762,44.922
26.855,87.402,37.598,26.367,19.531
20.508,24.414,26.367,8.301,-14.648
25.879,41.016,28.32,7.324,-0.977
34.668,61.523,29.297,16.113,-8.789
23.926,87.402,27.832,19.043,-13.672
17.09,74.707,26.855,21.973,62.5
20.02,14.648,20.508,17.578,81.543
26.855,13.672,25.391,17.578,34.668
31.25,50.293,34.668,20.996,42.969
23.438,70.801,35.156,20.996,95.703
16.602,60.547,35.156,19.043,69.824
10.254,19.043,37.598,21.973,34.668
13.184,18.555,26.855,21.973,5.371
20.996,50.293,28.809,21.484,42.48
21.484,89.844,34.668,27.832,88.867
20.996,79.102,28.32,25.879,84.473
12.695,9.277,21.484,15.137,31.25
13.184,16.602,26.367,15.625,-16.113
25.391,17.09,22.949,24.414,29.785
27.344,32.715,19.531,23.926,35.645
20.02,57.617,27.832,20.508,14.16
8.301,-1.953,23.926,8.301,14.648
18.555,39.062,30.762,20.508,34.18
37.109,37.109,31.738,30.762,-3.906
31.25,28.809,30.273,22.949,0
19.531,109.375,42.48,24.414,41.504
18.066,56.152,41.016,21.973,5.859
21.973,24.902,38.086,14.648,23.438
31.738,31.738,34.18,23.438,15.137
26.367,63.965,29.297,28.809,6.836
18.066,83.984,29.785,16.113,54.199
18.555,18.066,20.996,5.859,45.41
19.531,-32.227,12.695,6.836,25.391
34.668,-23.926,21.973,22.461,13.672
35.156,11.719,20.996,21.973,18.066
25.879,65.918,22.461,22.949,45.898
21.973,56.152,30.762,26.855,49.316
18.066,37.598,27.344,20.02,-9.277
29.785,30.273,26.367,26.855,-53.223
32.227,66.406,23.926,30.762,0.977
21.973,107.422,25.879,26.367,36.621
21.973,55.664,22.461,15.625,40.527
19.531,6.348,15.137,16.113,54.199
23.926,3.906,21.484,19.043,31.25
33.203,10.254,26.367,16.113,9.277
23.926,44.434,28.809,14.648,9.277
13.672,46.387,28.809,14.16,-16.113
14.16,-0.488,22.461,9.277,-31.738
17.578,20.996,20.996,5.371,39.551
25.879,-25.391,13.672,8.301,115.234
25.391,-18.066,13.184,10.742,51.27
12.695,51.27,23.438,11.23,-18.555
9.766,1.953,20.508,13.184,-24.902
17.09,0.977,12.695,4.883,-11.719
24.902,44.922,17.09,16.113,14.16
27.344,60.059,29.297,27.832,-10.254
22.949,-1.465,18.555,22.461,-17.578
11.23,-56.152,6.348,14.16,43.457
19.531,0.488,22.949,7.324,58.594
33.691,-3.418,25.391,10.742,74.707
33.203,1.465,20.508,20.508,74.707
26.855,88.867,32.227,18.555,81.055
17.578,28.32,27.344,1.953,24.414
15.625,7.324,27.832,-1.953,6.836
26.367,35.645,34.668,5.371,45.898
35.156,81.543,33.203,16.602,61.035
28.809,79.59,28.809,18.555,67.383
25.879,6.348,24.902,14.648,34.668
24.414,-32.227,18.066,13.184,15.625
28.809,-26.367,18.066,19.043,-20.508
28.32,46.875,25.391,15.137,-12.207
27.344,94.727,32.227,21.973,9.766
20.02,26.855,32.227,18.555,-29.297
6.836,25.879,26.367,10.742,-23.438
15.137,23.926,20.02,12.207,26.855
26.367,12.695,23.438,14.648,33.203
23.926,87.402,32.715,19.531,41.504
14.16,65.43,32.227,12.695,44.434
7.812,3.906,23.438,4.883,1.465
18.555,-8.301,18.555,9.766,-19.043
21.973,33.691,24.902,12.207,16.113
13.672,63.477,33.203,18.066,46.387
3.906,38.574,30.273,13.672,39.551
-8.301,-7.812,19.043,-1.953,-27.344
5.859,17.578,26.855,11.719,69.824
26.367,-30.273,27.344,21.973,114.746
18.066,-2.441,30.762,21.484,31.738
8.301,56.641,29.785,7.812,48.34
5.371,-16.602,18.555,-4.883,94.238
10.254,-35.156,21.484,1.465,42.969
17.578,21.973,30.762,4.395,42.48
13.672,34.668,24.414,4.395,45.898
11.719,-45.898,16.602,9.277,-35.156
7.324,-83.984,20.508,8.789,-31.738
9.766,-26.855,29.785,13.672,1.465
29.297,-51.27,32.227,25.879,22.949
25.391,-57.617,34.668,19.043,3.418
13.672,15.137,37.598,12.695,-22.949
10.742,-31.738,29.297,14.16,-1.953
10.742,-56.641,22.461,5.859,11.23
15.137,-17.09,26.367,8.301,60.547
16.602,7.324,34.18,20.996,36.133
19.043,-15.625,26.367,24.414,-23.438
16.113,-60.547,17.578,19.531,13.672
15.137,-84.961,23.438,9.766,23.438
23.438,-87.891,16.602,11.719,84.473
29.297,-45.898,18.555,20.02,59.082
24.414,16.113,36.133,23.438,50.781
13.672,-30.762,25.879,23.438,83.008
9.277,-24.414,20.996,18.066,86.914
24.414,-34.18,22.949,20.508,59.57
27.344,-15.137,22.461,22.949,10.254
16.602,20.508,18.066,22.461,63.477
7.324,-8.301,19.043,21.484,160.645
11.719,-50.781,20.02,15.137,102.539
22.461,-67.871,16.113,6.348,-17.578
27.832,-34.18,20.508,7.812,23.438
22.949,-13.184,32.227,11.719,6.836
14.16,-7.324,32.715,8.789,25.391
8.789,-19.531,22.461,-0.488,45.41
19.531,-41.504,16.602,-0.977,9.766
26.367,-61.035,18.066,5.371,27.832
15.137,-8.789,23.438,4.395,-34.18
17.09,17.09,26.367,6.348,-82.031
12.695,-7.812,22.461,2.93,-16.602
13.672,-13.184,12.695,3.418,10.742
28.32,15.625,23.438,12.695,6.836
20.508,41.016,33.691,9.766,-3.418
12.207,-20.996,27.832,11.23,10.742
10.254,-52.246,25.879,7.812,8.789
19.531,-6.836,27.344,11.23,18.066
31.25,22.461,26.855,17.09,52.246
28.32,59.57,36.133,18.555,64.453
11.23,44.922,32.715,9.277,117.676
1.953,-25.879,24.414,7.812,82.031
11.719,-25.391,27.832,10.254,49.316
23.438,-18.555,25.879,10.742,55.176
19.531,8.789,28.32,15.625,23.926
9.766,42.969,31.25,14.648,35.645
12.695,-30.273,19.043,12.207,-10.254
17.09,-41.504,23.438,7.324,39.062
25.391,-41.016,26.855,6.836,90.82
20.996,-62.5,18.555,3.418,-3.906
20.996,47.852,37.598,17.578,12.695
15.137,51.27,32.715,22.949,79.102
12.207,-6.836,15.137,17.09,56.152
28.809,6.348,26.367,28.809,15.137
24.414,41.504,30.273,30.762,3.418
15.137,35.645,28.32,19.043,-2.93
13.184,-5.371,27.344,13.672,17.09
8.789,-33.203,20.996,10.742,24.902
13.672,-36.133,16.602,8.789,21.973
23.926,-7.812,19.531,18.555,4.883
22.461,9.766,25.879,21.973,-60.547
13.672,17.578,26.367,11.719,-26.367
14.16,15.137,28.809,3.906,46.875
20.02,-39.551,24.414,9.766,47.363
27.832,-46.387,26.855,11.23,20.508
19.531,53.711,37.598,8.789,27.344
5.859,27.344,29.785,19.043,31.25
14.648,-24.414,24.902,20.996,12.695
24.902,-35.156,21.973,17.09,-24.902
26.367,16.602,29.297,11.23,4.883
15.625,45.898,29.785,18.066,35.156
9.766,-32.227,27.832,20.996,12.207
9.277,-63.477,27.344,1.953,28.32
14.16,-50.781,14.648,-0.977,37.109
19.531,-34.668,16.113,3.906,51.758
20.02,47.363,35.156,11.719,48.34
18.066,62.012,37.109,17.578,41.016
6.836,1.465,28.809,7.324,71.289
12.207,-17.578,27.832,5.859,69.824
25.391,8.301,33.691,18.066,42.969
24.902,60.547,37.109,25.391,56.152
20.02,28.32,35.645,24.902,37.109
11.23,-32.227,28.809,17.578,-23.438
14.648,-65.918,15.137,16.113,12.695
26.367,-37.598,19.531,16.602,10.254
25.391,57.129,24.414,20.996,-3.418
20.508,63.965,23.438,18.066,54.688
19.043,-6.348,19.043,9.277,44.922
16.602,16.602,20.02,18.555,16.113
27.832,-0.977,23.926,23.438,27.344
29.297,20.508,29.785,20.02,28.809
20.996,76.172,37.598,22.461,34.18
17.09,2.93,22.949,22.461,24.414
10.254,-15.625,15.137,21.973,38.086
22.461,-2.441,16.113,13.184,9.766
26.367,23.438,23.438,14.648,34.668
21.484,26.367,27.832,22.461,105.957
15.625,-8.789,23.438,10.742,21.973
10.742,7.324,21.484,3.418,-34.668
30.273,6.836,23.438,16.113,19.043
34.668,34.668,32.227,26.367,52.734
24.902,20.996,27.832,20.02,-28.809
19.043,-15.137,18.555,13.672,-31.25
15.625,6.348,36.133,12.207,39.551
20.508,-28.32,29.297,17.09,36.133
27.344,-6.836,21.973,17.09,12.695
16.602,78.125,34.18,10.254,-8.301
7.324,2.441,25.391,15.137,-8.789
9.766,-25.391,25.391,13.184,5.859
17.09,-5.859,24.902,10.254,49.316
23.926,-31.738,22.461,15.137,45.898
18.555,64.941,34.668,17.578,50.293
16.602,64.941,39.551,20.996,8.789
4.395,6.348,36.133,20.996,13.184
8.301,-21.484,28.32,15.625,69.824
19.531,-18.066,33.203,15.137,56.641
15.625,-16.113,40.039,19.531,10.742
18.066,-42.969,43.945,15.137,-28.32
15.625,-84.961,35.156,17.09,-2.441
19.531,-131.348,25.391,16.602,41.504
29.297,-143.066,35.645,13.672,61.035
23.926,-73.242,39.062,11.23,35.645
17.578,-19.531,35.645,17.09,35.645
17.09,-50.781,25.879,16.602,106.934
17.578,-89.355,18.066,8.789,92.285
26.367,-91.309,24.414,11.719,-21.973
28.32,-43.457,35.156,20.02,-69.336
20.996,-37.109,39.062,18.555,28.32
15.625,-95.703,32.227,4.395,34.668
11.719,-114.258,30.273,0.977,26.367
21.484,-101.074,31.25,14.16,51.758
24.902,-95.703,23.438,24.414,10.742
13.184,-86.914,24.902,16.113,27.344
4.883,-101.562,26.367,6.836,32.227
9.277,-91.797,28.32,7.812,13.184
19.043,-129.883,32.715,3.418,8.301
21.973,-97.656,40.527,9.277,38.086
10.254,-3.906,41.504,8.789,35.645
6.836,-38.574,37.109,1.465,64.941
7.812,-79.102,26.367,4.883,48.34
16.113,-81.543,20.996,8.301,-26.855
21.973,-19.043,26.855,10.254,35.156
11.23,-19.531,19.043,6.348,43.457
19.043,-98.145,13.184,11.23,9.277
20.508,-90.82,17.578,4.883,62.988
14.16,-115.723,23.438,-1.953,9.277
21.973,-89.355,19.043,5.859,10.254
15.625,12.695,28.32,9.277,38.574
10.742,-39.551,40.039,17.09,-29.785
6.836,-77.148,28.32,12.207,-13.184
12.207,-87.402,15.625,4.883,20.508
23.926,-54.688,28.809,12.695,-31.25
15.625,1.953,41.504,16.602,17.578
9.766,-40.527,30.762,15.625,47.852
11.719,-70.312,31.25,12.695,55.176
18.555,-100.586,29.785,2.93,120.117
35.645,-106.934,21.484,0.488,48.34
24.414,-26.367,36.133,-1.953,-12.695
6.836,-20.996,30.273,0.977,-39.551
10.254,-76.172,20.02,3.418,-77.148
18.066,-83.496,26.367,1.953,-34.18
26.367,-41.504,31.25,7.324,-8.301
33.691,10.254,38.574,8.789,-20.02
31.738,-9.766,36.133,11.23,6.836
24.902,-54.199,34.18,12.207,2.93
26.855,-63.965,40.039,22.461,32.227
36.133,-55.664,41.504,26.367,13.672
33.203,-33.691,45.41,30.273,-11.23
23.926,-48.34,43.457,28.32,-3.418
15.625,-51.758,40.039,17.578,12.695
16.113,-41.992,45.41,22.949,15.625
27.344,-95.215,40.527,16.113,-5.859
30.762,-30.273,43.457,17.578,39.551
20.02,27.344,42.48,20.02,62.988
10.254,-46.387,35.156,20.02,35.156
11.719,-36.133,38.086,18.555,42.969
19.531,-24.414,40.527,13.672,50.293
17.09,20.508,37.109,15.625,66.895
10.254,7.324,36.133,20.996,54.199
3.906,-77.637,34.668,15.625,0.488
6.348,-77.148,30.762,8.301,-22.461
18.555,-71.777,32.715,17.09,12.207
25.391,-32.227,40.527,16.113,51.27
19.531,48.828,46.875,7.324,31.738
14.16,12.695,41.992,14.648,41.016
9.766,-27.344,38.086,7.812,62.012
19.531,-38.086,35.645,11.719,83.984
34.668,12.207,48.34,29.785,107.422
28.809,9.766,54.688,25.391,75.195
25.391,-35.645,40.039,20.02,0
24.414,-40.527,31.738,18.066,-6.348
29.297,-85.938,25.879,19.043,23.926
34.18,-25.879,35.156,15.137,15.137
27.832,47.363,43.945,14.648,2.441
28.809,-11.719,35.645,18.555,-23.438
16.113,-23.926,33.203,0,22.461
12.207,-59.57,37.598,1.953,42.48
30.273,-71.289,37.598,6.836,15.625
33.691,38.574,38.086,12.207,54.199
26.855,23.926,41.016,26.855,5.371
5.371,-20.996,37.109,2.441,41.504
-5.371,-43.457,34.668,-11.23,70.801
14.648,-44.922,38.574,7.324,5.371
22.949,-10.254,43.945,12.207,26.367
15.137,-14.648,42.969,7.812,37.598
9.277,-2.441,49.316,5.859,63.477
14.16,-6.348,40.039,10.254,75.195
26.367,-66.406,25.879,11.23,74.219
27.344,-17.09,35.645,16.113,24.414
25.391,50.293,35.645,20.02,10.742
23.438,-8.301,27.344,16.602,12.207
19.043,-50.293,20.02,7.324,79.59
26.855,-31.25,23.926,10.742,106.934
29.785,46.875,37.598,27.344,33.691
23.438,38.086,32.715,13.184,26.855
15.625,-47.852,23.438,-2.93,37.598
12.695,-44.922,25.391,2.441,63.477
23.438,-10.742,31.738,7.324,24.414
24.902,44.922,34.668,9.277,4.395
13.672,61.523,36.133,6.836,12.207
11.719,28.32,38.086,5.371,49.805
14.16,15.137,33.203,3.906,75.684
15.625,-66.895,27.832,2.441,43.945
20.996,-20.508,34.18,8.301,97.168
27.832,50.293,43.457,13.184,29.785
19.043,-35.156,36.621,19.043,-35.645
7.324,-39.062,35.645,15.625,28.809
16.602,-40.527,36.621,18.066,43.945
26.367,1.465,41.016,21.484,76.66
15.137,64.453,41.992,13.184,81.055
8.301,24.902,39.551,15.137,15.625
5.371,-39.551,36.621,8.301,-17.09
5.371,-76.172,20.996,2.93,35.156
15.625,-29.297,30.273,-1.465,39.551
13.672,80.078,44.922,1.465,-1.465
7.324,80.566,30.273,5.859,-22.949
-1.465,50.781,26.855,-0.977,-6.836
2.93,30.762,18.555,0,-13.672
22.461,85.938,24.414,9.766,-74.707
20.508,148.926,37.109,13.184,-16.602
7.324,125.977,32.227,14.648,16.602
2.93,115.723,28.32,12.695,-43.457
9.277,100.586,31.25,4.883,-14.648
22.461,77.637,37.109,11.23,37.598
16.113,160.645,37.598,14.648,24.414
11.719,189.453,34.668,23.438,48.34
11.719,110.84,35.645,27.832,40.039
7.812,87.402,27.832,15.625,8.789
13.184,133.301,32.227,16.602,63.477
20.996,183.594,49.805,23.438,64.453
13.672,152.832,39.551,16.602,20.508
4.395,77.148,23.438,6.348,13.672
8.301,49.805,26.367,6.836,-16.602
19.531,105.957,40.039,16.602,4.395
22.461,153.32,44.922,16.602,-24.414
19.531,151.367,33.203,13.184,-20.996
14.648,109.863,23.926,4.395,25.391
3.418,85.449,34.18,-4.395,48.34
7.324,28.32,21.484,-9.277,26.367
7.324,88.867,23.438,-4.883,34.18
7.812,131.836,35.156,12.207,15.137
7.324,69.824,20.996,13.672,-10.254
2.93,78.613,18.555,10.742,47.363
11.23,1.465,8.789,5.859,-1.465
17.578,71.289,23.438,11.719,13.672
21.973,147.949,37.598,20.508,53.223
10.742,83.008,22.949,5.371,-13.672
0.488,74.219,22.949,-3.418,2.93
10.254,49.316,20.02,-0.977,73.73
17.09,83.984,33.691,4.395,51.758
19.043,142.578,41.016,3.906,31.25
22.949,104.004,25.391,5.859,54.688
19.043,47.852,22.461,0.977,9.766
12.695,12.695,20.02,2.93,-24.902
20.02,73.73,22.461,13.184,6.836
13.672,83.008,27.832,13.184,-22.461
7.812,21.484,27.344,24.414,-49.805
0.488,35.156,21.973,16.113,-0.488
7.324,20.02,14.648,7.324,39.551
18.066,30.762,11.719,10.742,26.855
17.09,106.445,18.066,17.09,13.184
11.719,78.613,18.066,14.16,53.711
5.371,27.344,20.02,11.23,47.852
18.066,-10.254,6.348,9.277,16.113
21.973,13.672,11.23,7.324,13.672
28.809,88.867,34.668,22.949,9.277
38.574,62.5,30.762,36.621,31.25
24.414,4.395,13.184,12.207,86.426
11.719,-20.02,3.906,-13.672,47.363
31.25,-51.758,1.953,2.93,-22.461
46.387,36.133,13.672,6.348,-4.883
33.691,153.809,27.344,8.789,60.059
18.066,97.168,10.742,6.836,75.684
20.02,24.902,4.883,-4.883,43.457
33.691,38.086,17.09,16.602,60.059
32.715,91.309,11.719,25.879,57.617
21.484,73.73,17.09,28.32,34.18
4.395,20.508,18.066,31.25,13.672
4.883,-7.324,15.137,29.785,54.688
15.625,-12.207,16.113,31.738,70.801
24.902,30.762,19.531,30.273,73.242
28.809,49.316,25.879,33.203,35.156
23.438,10.742,21.973,27.832,-2.441
22.949,-5.371,16.602,22.461,47.363
26.367,-70.312,12.207,30.762,20.508
23.926,-17.578,24.902,35.645,-9.277
18.555,89.844,30.273,24.902,4.395
12.695,36.621,19.531,25.391,0
9.277,-15.625,14.648,22.949,-26.367
22.461,-17.09,19.043,23.926,-53.223
39.062,45.41,30.273,33.691,-48.34
37.598,51.27,30.762,40.039,0
23.926,3.906,20.02,37.598,23.926
18.066,13.184,19.531,28.32,40.527
35.645,-20.02,19.043,32.227,48.34
46.875,22.461,24.902,37.109,42.969
37.598,96.191,29.297,34.668,94.727
26.367,27.344,18.066,36.621,28.32
21.484,-24.902,13.184,37.598,26.367
22.461,-84.473,4.883,22.461,48.34
32.715,-41.016,23.926,20.508,22.461
38.574,69.824,38.574,34.668,19.531
36.133,37.109,29.785,39.551,-1.953
23.926,-33.691,18.066,34.18,12.207
14.16,-61.035,10.742,25.879,-1.953
26.855,-54.688,16.113,27.832,23.438
23.438,47.852,26.855,27.344,41.504
12.207,85.938,33.203,23.926,40.527
7.812,18.555,27.832,11.23,71.777
17.09,-36.133,20.508,12.207,33.691
31.738,-18.555,26.367,25.391,-22.949
30.762,56.641,30.762,37.598,3.906
25.879,33.203,24.902,30.273,72.754
10.254,-29.297,17.09,7.324,61.523
15.625,-47.852,10.254,3.418,50.781
33.691,-52.734,12.207,9.766,13.184
32.227,14.648,17.09,14.16,20.02
27.344,42.969,16.602,21.973,49.316
19.531,-16.113,17.09,19.531,-28.32
20.02,-59.082,11.23,11.23,-73.242
22.461,-49.316,16.113,5.371,2.441
25.391,11.23,22.949,9.766,22.949
20.508,18.555,20.02,18.066,-18.555
10.742,-18.066,20.02,15.137,10.742
12.207,-34.668,15.137,16.113,26.367
18.555,-83.496,9.277,17.09,37.598
28.32,-43.457,18.066,14.16,29.297
41.016,11.23,19.043,35.645,-11.23
36.133,-41.016,15.137,44.434,-12.207
10.742,-58.105,10.254,11.719,-20.02
12.695,-70.801,2.441,2.93,-94.727
21.484,13.184,14.16,12.695,-26.367
14.16,40.039,18.066,13.672,-4.883
0,-18.066,22.461,1.465,-61.035
-4.395,-18.066,25.879,-6.348,37.109
9.766,-77.637,17.578,0.488,53.223
17.578,-47.363,22.461,2.441,61.523
18.555,50.781,31.738,12.207,19.531
17.09,16.113,39.062,17.578,0
1.953,-34.668,22.949,2.93,64.453
1.953,-80.566,0.488,1.953,68.848
11.719,-56.641,18.066,7.812,31.25
14.16,47.363,33.691,2.441,58.594
11.23,35.156,26.367,10.254,40.527
4.395,-15.625,21.484,9.766,0
12.207,-55.176,19.531,5.859,41.504
28.809,-29.785,21.973,7.812,66.406
34.18,30.273,26.367,12.207,69.824
30.273,-4.395,24.902,22.461,82.031
6.836,-58.105,22.461,18.066,0.488
1.465,-79.59,17.578,6.836,10.742
15.137,-72.754,19.043,18.066,98.145
17.09,-34.18,27.832,22.461,55.176
14.648,-26.855,28.32,14.16,17.578
4.395,-48.34,21.973,12.695,17.09
1.953,-60.547,21.484,14.16,35.156
16.113,-106.934,20.996,20.02,75.684
17.578,-39.062,29.297,17.578,50.781
11.23,27.344,39.551,20.508,3.418
8.301,-2.441,41.992,17.578,42.48
8.789,-39.551,34.18,9.766,77.148
15.625,-41.504,31.25,10.254,61.523
29.297,15.137,35.156,15.137,43.945
29.785,-18.066,28.32,20.02,38.086
20.02,-55.176,29.785,12.695,33.203
16.602,-20.996,32.715,5.371,15.625
22.949,-77.637,20.508,11.719,-0.488
25.391,-48.828,33.203,18.555,-13.672
25.879,52.246,51.758,24.902,-22.949
20.996,25.391,36.621,21.484,21.973
13.184,-19.531,30.273,12.695,75.684
16.113,-54.688,29.785,5.371,47.852
23.926,7.812,32.715,9.277,40.527
23.926,41.992,38.574,9.766,22.949
10.254,-4.883,29.785,6.348,41.504
6.836,-69.336,14.648,4.395,39.551
14.648,-117.188,11.23,3.418,16.113
29.785,-50.781,28.32,7.324,9.766
18.066,69.824,29.297,4.883,46.875
7.812,45.898,17.578,2.441,66.895
6.836,4.395,19.043,10.254,74.707
7.324,-31.25,16.602,7.324,88.379
19.531,1.465,29.785,6.836,53.711
25.879,60.547,37.109,4.883,60.547
18.555,29.785,28.809,13.672,87.402
8.789,-41.016,20.508,9.766,-0.977
6.836,-73.242,17.09,3.906,0.488
18.066,-53.223,18.066,11.23,34.18
32.715,17.09,35.156,22.949,-4.395
21.973,36.133,30.273,12.695,23.926
13.184,-5.371,11.719,-0.977,7.324
24.414,-59.082,22.461,13.184,-17.09
30.273,-90.82,17.09,5.371,-20.996
32.715,20.508,25.879,4.883,0.488
28.32,60.059,46.875,20.508,18.066
18.555,5.371,38.086,12.207,2.441
17.09,-37.598,21.973,13.672,21.973
24.902,-36.621,25.879,15.137,-1.465
30.273,29.297,36.133,17.09,-3.906
27.832,-2.441,29.297,30.273,36.133
22.949,-42.969,22.949,21.973,27.344
17.09,-24.414,26.367,15.137,9.766
26.367,-62.988,26.855,16.113,47.363
40.039,-8.301,29.297,12.207,43.457
37.109,74.219,35.645,19.043,1.953
25.391,35.645,43.945,20.508,16.113
13.184,-25.391,24.414,13.184,-4.883
11.23,-43.457,10.742,4.395,-26.855
18.066,23.438,25.391,11.719,-5.859
14.648,28.809,21.484,15.625,-23.438
16.113,-4.395,25.391,10.742,11.23
19.531,-61.035,18.066,8.301,74.219
23.926,-70.312,13.184,11.23,46.387
26.367,21.973,35.156,19.531,21.973
29.297,36.133,41.016,21.973,21.973
26.367,13.672,34.18,10.742,40.527
11.23,6.348,22.949,4.883,60.547
17.578,-91.797,11.719,1.465,2.93
22.461,-55.176,28.809,-4.395,11.719
18.555,76.172,47.852,5.371,70.801
12.695,40.039,33.691,12.207,92.285
0,-15.625,25.879,5.371,50.781
8.301,-59.082,22.461,3.418,3.418
33.203,-55.176,22.461,12.695,-4.395
31.25,0,31.738,20.02,-5.371
7.812,33.691,30.273,11.23,65.43
0.977,13.672,28.32,1.953,71.289
6.348,-68.359,25.879,10.254,18.066
14.648,-76.66,32.715,18.066,23.438
9.277,31.738,42.969,2.93,28.809
-3.418,41.992,35.645,1.953,58.105
-6.836,-4.395,35.156,2.441,54.199
1.465,-64.453,29.297,2.93,56.641
15.137,-58.594,22.949,12.695,62.988
18.066,31.738,32.715,16.602,22.949
20.508,-16.602,27.832,20.508,-38.086
10.742,-31.738,21.973,7.812,-21.484
-5.859,-37.598,18.066,-4.395,21.973
14.648,-102.539,15.625,8.789,-10.254
28.32,10.742,30.273,12.695,6.348
20.02,83.984,34.18,14.648,72.754
11.719,20.996,19.531,13.672,79.59
17.578,-29.785,18.555,11.719,43.457
27.344,-29.297,26.855,21.973,57.129
22.461,36.133,30.273,24.902,63.477
18.066,38.086,31.738,20.996,-16.113
14.648,9.766,31.25,17.578,12.207
7.324,-45.898,21.973,11.23,45.41
13.672,-99.609,17.09,2.93,-19.531
28.809,-3.906,33.203,17.09,-17.09
19.531,87.402,43.457,24.414,2.441
15.137,37.598,36.133,21.484,-5.371
15.625,-11.719,23.438,19.043,9.766
11.23,-40.527,23.926,15.625,-3.906
21.973,19.531,31.738,16.113,-10.742
26.367,49.805,42.969,25.879,4.883
15.137,18.066,41.016,30.762,15.137
13.184,-37.109,30.273,19.043,24.902
13.672,-76.66,34.668,14.648,5.371
15.625,-23.438,38.086,19.531,22.461
13.672,16.602,38.086,12.207,26.855
14.16,4.883,34.18,12.695,-0.977
11.23,-2.93,33.203,18.066,12.695
7.812,-62.5,24.902,2.441,49.316
25.879,-57.129,23.926,13.184,40.039
28.32,58.594,36.621,14.16,-20.508
20.02,52.734,36.621,7.324,8.789
11.719,-3.418,29.297,16.113,-13.672
11.719,-55.176,26.367,11.719,-71.777
18.555,-7.324,30.273,2.93,-47.852
18.555,52.246,30.762,4.395,-3.906
4.883,6.836,29.297,0.488,35.645
1.953,-27.344,33.203,2.441,5.859
12.695,-65.918,28.809,7.812,-9.766
17.09,-14.648,39.062,13.184,47.363
19.043,62.988,39.551,11.23,37.598
23.438,39.551,27.832,10.254,19.043
17.578,8.301,26.855,9.277,6.836
15.137,-39.551,21.484,5.371,23.438
23.438,-66.895,20.508,6.836,97.168
25.391,14.16,35.156,11.23,47.852
20.02,44.922,41.504,15.625,25.879
18.555,2.93,27.832,17.09,53.711
23.438,-42.969,24.902,19.043,73.73
32.227,-90.82,20.508,20.508,86.426
35.156,1.953,32.715,17.578,36.621
30.762,61.523,43.457,13.672,70.312
20.996,-6.348,23.926,13.672,49.316
8.789,-21.973,19.531,11.23,7.324
22.461,-23.438,20.996,11.719,11.23
37.109,36.621,27.832,15.625,17.09
35.156,58.594,29.785,19.531,24.414
32.715,30.273,32.227,20.996,21.484
25.879,1.953,33.691,14.16,81.543
27.832,-34.18,25.879,23.926,62.988
37.598,-24.414,27.832,32.227,4.883
36.621,9.277,32.227,28.32,1.465
25.879,19.043,32.715,21.484,-19.531
18.555,6.348,39.551,22.949,20.508
22.949,-36.133,40.039,22.949,54.199
38.086,0.488,35.645,28.809,45.898
33.691,32.227,42.48,34.18,13.184
25.879,27.832,42.48,28.32,2.441
14.16,8.789,31.25,17.578,3.906
11.23,-62.012,30.762,10.254,-32.715
22.461,-15.625,40.527,12.695,-43.945
18.066,60.059,43.945,13.184,-9.766
12.207,6.348,38.574,12.207,6.348
6.348,-34.668,26.855,9.277,-14.16
9.277,-70.801,20.508,6.348,-5.859
17.578,-18.555,30.273,8.301,0.488
21.973,74.707,40.039,9.277,5.859
20.996,50.781,34.18,15.625,25.879
12.207,27.832,33.203,14.648,85.449
9.277,-41.992,23.926,13.184,91.797
19.043,-121.582,20.996,11.719,56.152
24.414,2.441,45.41,14.16,105.469
17.578,87.891,45.898,13.672,136.719
8.789,27.344,38.574,17.578,91.797
5.371,-66.895,26.855,14.16,20.508
11.23,-103.027,16.602,1.465,-33.203
15.625,38.574,40.527,0,-6.348
14.648,74.219,46.387,13.184,-20.02
13.184,16.602,36.621,17.09,-41.016
7.812,-15.137,34.18,4.395,35.645
16.602,-18.555,32.227,-0.488,75.684
27.832,51.758,33.691,6.836,54.688
18.066,60.059,37.109,15.625,30.273
13.672,32.715,37.598,8.301,37.598
14.648,-6.836,25.391,-0.977,56.641
21.484,-44.434,23.438,0.977,-12.695
32.715,6.836,36.133,8.789,-6.348
31.738,52.734,40.527,12.695,85.938
26.855,41.504,32.715,12.207,27.832
20.996,1.465,26.855,0.977,-22.461
21.973,-22.949,31.738,1.465,25.391
29.785,37.109,34.668,15.137,39.551
26.367,62.5,34.18,17.09,-9.277
19.043,31.738,31.738,6.348,18.555
16.602,4.395,30.273,2.441,13.672
20.996,-79.59,20.996,3.418,-28.809
28.809,-29.785,30.273,11.23,-17.09
30.762,83.008,43.945,28.809,4.395
25.879,19.531,29.297,21.484,-1.465
19.043,-18.066,25.391,14.16,-12.207
20.996,-73.73,23.926,19.043,-2.441
25.391,-24.414,31.25,11.23,42.969
29.785,103.027,40.527,22.461,58.594
23.926,77.637,38.574,26.367,54.199
19.531,17.09,30.762,13.672,32.715
18.555,-30.273,21.484,16.602,0.488
21.973,12.207,32.227,25.391,8.301
33.691,74.707,33.203,30.762,5.859
31.25,71.777,23.926,20.508,65.43
20.996,34.18,21.973,8.789,41.504
22.461,-57.129,8.301,8.301,-5.371
29.785,-53.711,1.465,3.906,49.316
34.18,74.707,21.973,11.23,28.32
36.133,75.684,28.32,20.02,-20.02
29.785,26.367,16.113,13.672,14.16
19.043,-0.488,12.695,9.277,87.402
20.508,-6.836,10.254,10.254,52.734
25.391,60.059,17.09,15.137,5.859
22.461,58.105,30.762,14.648,37.109
9.766,21.973,24.902,1.953,46.387
3.906,-15.625,15.625,3.906,71.777
10.742,-20.02,15.625,4.395,98.145
17.09,20.02,21.973,8.301,72.754
18.066,41.504,25.391,10.254,29.785
18.066,29.297,27.344,6.348,-4.883
9.766,12.695,31.25,9.766,29.785
11.719,-43.945,11.719,3.906,60.059
23.438,20.508,11.719,8.789,39.551
16.113,99.121,27.832,12.207,41.016
9.766,61.035,23.438,11.23,39.551
7.812,45.41,16.113,13.184,76.172
12.207,11.719,19.531,23.926,53.223
17.09,71.777,29.297,19.531,77.637
18.555,85.449,20.508,13.184,54.688
17.578,18.555,23.926,20.996,-0.488
11.719,36.133,30.762,18.066,68.359
22.949,-20.508,16.113,9.277,58.594
30.273,-8.789,19.531,7.812,51.758
28.809,104.492,26.855,14.16,13.672
22.461,79.59,26.855,16.602,-3.906
9.766,28.32,21.973,15.625,13.184
4.883,4.883,13.184,6.836,25.879
15.137,29.785,13.672,7.812,65.43
22.461,53.223,9.766,20.02,15.625
16.113,63.477,3.906,14.648,-33.203
16.602,36.621,-3.906,10.254,-26.367
16.602,-33.691,-19.043,15.625,42.969
20.02,7.812,-22.461,5.859,79.102
22.461,110.352,-13.672,0.977,63.477
20.02,91.797,-9.277,15.625,88.867
13.184,44.434,-17.578,14.648,46.875
16.602,-31.738,-28.809,12.695,16.602
19.043,-20.508,-22.461,7.812,34.18
13.184,78.613,-10.254,9.277,41.992
17.09,61.035,-5.371,15.625,6.836
16.602,32.715,-15.625,12.695,-9.277
15.137,-24.414,-24.902,9.766,21.973
18.066,-58.105,-18.066,12.207,-4.395
25.391,33.691,-5.371,20.508,-15.625
18.555,68.848,-1.465,20.996,37.109
6.348,57.617,-0.977,17.578,38.086
7.812,17.578,-1.465,15.625,62.012
15.137,-70.801,-14.16,11.23,78.613
26.367,8.789,12.207,17.578,0.488
27.832,108.398,27.832,25.879,-18.555
17.578,86.426,7.812,25.879,56.152
3.906,25.879,8.789,17.578,65.918
11.23,-19.043,6.348,14.648,-36.133
31.25,71.777,16.602,27.344,-18.066
26.367,88.379,18.066,25.879,33.203
19.043,18.555,10.254,20.02,14.16
12.207,-22.949,7.324,10.254,17.578
13.184,-83.496,-2.441,5.859,-25.879
24.902,1.465,15.625,7.324,-38.574
21.973,116.211,30.273,12.207,-32.715
12.207,82.031,15.137,12.695,21.484
10.254,20.996,20.996,17.09,20.996
14.648,-11.719,23.926,15.625,-30.762
22.949,29.297,21.484,22.461,9.277
26.855,71.289,27.832,25.391,52.246
20.508,59.57,24.902,20.508,65.43
18.555,4.883,17.578,18.555,29.297
19.043,-68.848,18.066,11.719,-4.883
29.785,-13.184,33.691,19.043,-32.715
37.109,83.008,43.945,23.438,-33.203
33.691,63.965,34.18,20.996,5.371
22.949,35.156,24.902,19.043,57.617
20.996,-47.852,15.137,17.09,21.973
19.531,-26.367,23.438,11.719,3.906
28.32,105.957,41.016,28.32,40.039
30.273,97.168,40.039,32.715,52.734
18.066,48.828,30.273,22.949,39.062
17.578,-17.578,19.043,22.461,18.555
20.02,2.441,22.949,19.531,78.613
29.297,41.992,27.344,26.367,63.477
32.227,43.945,37.598,30.762,28.809
20.508,66.895,41.992,18.555,34.668
13.672,-14.648,26.367,19.043,9.277
15.137,-45.41,16.113,11.23,16.113
20.996,83.496,36.621,12.695,39.062
23.926,75.684,37.109,22.949,40.527
20.508,36.621,34.18,19.531,22.461
20.996,12.207,34.18,20.02,8.789
26.367,-2.441,27.832,16.113,20.508
34.18,96.191,43.457,26.367,52.246
31.738,90.82,46.387,31.25,71.289
22.461,7.812,36.621,24.414,-13.672
12.695,-28.809,29.785,9.277,-30.273
10.742,4.395,32.715,0.977,10.742
18.066,96.68,51.758,13.672,73.242
17.578,112.793,49.316,19.531,107.422
14.16,83.496,39.551,12.695,111.328
14.16,24.902,36.133,9.766,49.316
17.09,3.906,38.086,17.09,45.41
22.949,73.73,43.945,14.16,67.871
23.926,87.891,41.992,15.137,67.383
13.672,68.359,45.898,18.555,65.918
4.883,34.18,37.109,12.695,17.09
8.301,-26.855,31.25,6.348,28.809
19.043,23.438,41.992,7.812,25.879
24.414,93.75,51.27,21.973,-6.348
22.461,55.176,46.387,28.32,-76.66
17.578,53.711,41.504,16.113,-14.648
20.02,-31.25,33.691,10.254,63.477
20.02,-58.594,25.391,2.93,46.387
25.879,84.473,39.062,6.348,-6.836
28.32,96.191,49.805,20.02,-45.898
20.508,55.664,40.039,17.09,41.016
21.973,13.184,24.902,10.254,77.148
31.738,3.418,33.203,8.789,31.25
31.25,30.762,32.227,19.043,17.578
23.926,31.738,24.414,21.973,0
21.484,15.625,20.996,10.254,-24.902
19.531,-48.34,20.02,3.418,-3.906
20.508,-43.945,22.461,-3.418,5.859
27.832,90.332,44.922,9.766,-5.371
25.391,107.422,54.199,20.02,29.297
15.625,59.082,40.527,15.625,29.785
13.672,-12.207,27.344,7.324,1.465
21.973,-4.395,24.414,0.977,34.18
39.062,82.031,41.016,22.949,77.148
33.203,65.918,37.598,24.414,82.52
18.066,14.16,29.785,11.23,78.125
18.066,-24.902,23.926,10.254,81.543
20.508,-44.434,16.113,9.766,105.469
27.344,55.664,34.668,14.648,89.844
20.02,89.355,39.551,7.324,23.438
9.766,46.387,28.809,0.488,-32.227
12.207,6.348,25.391,8.789,-13.184
8.789,-15.137,23.926,11.719,19.043
9.277,40.039,30.762,12.207,-16.602
17.09,55.664,35.645,16.602,-32.227
16.113,46.875,44.434,19.531,27.832
8.301,0.977,40.527,16.113,0.488
7.812,-45.41,32.227,4.395,-29.785
16.113,26.367,41.016,5.371,52.734
18.555,86.426,43.945,13.184,60.547
19.531,78.613,50.293,20.996,70.801
14.648,24.414,37.598,19.531,91.797
5.859,-88.867,19.043,15.625,38.086
12.207,-8.789,35.645,16.602,44.434
24.414,111.816,47.852,23.438,51.27
15.137,62.5,38.086,20.996,28.32
8.301,14.16,30.273,9.766,18.066
2.93,-14.16,28.809,8.789,44.434
9.277,20.02,39.551,14.648,75.684
19.043,34.668,39.551,21.973,68.848
16.602,13.672,36.133,21.973,11.719
13.672,37.109,33.203,17.09,49.316
13.184,-14.16,11.23,4.883,113.281
22.949,-13.672,18.066,0.488,63.965
28.809,56.152,34.18,12.695,-9.277
26.855,24.902,24.902,9.766,-55.176
17.578,4.883,21.973,5.859,-50.781
18.555,-55.176,17.578,4.883,-3.418
46.387,-64.453,17.578,18.066,1.465
39.062,67.383,31.738,21.484,-8.301
3.906,65.43,41.992,-3.418,0.488
-2.441,0.977,37.109,-4.395,33.203
-0.488,-79.102,25.879,-2.441,-9.277
-1.953,-101.074,32.227,-15.625,-62.012
3.906,52.246,55.664,-12.695,3.418
12.207,103.516,57.617,-5.371,17.09
7.324,57.129,54.688,-10.742,14.648
-0.977,-1.953,46.875,-8.301,69.824
-0.977,-21.973,50.781,1.465,57.129
3.906,39.062,57.129,-0.977,21.484
5.371,37.109,43.457,-0.977,54.688
6.836,22.949,46.387,11.719,31.25
7.812,1.953,51.758,13.184,20.996
10.254,-31.738,43.945,-0.977,62.012
21.484,26.367,40.527,1.465,80.078
24.902,73.73,41.992,11.23,21.484
14.16,62.012,52.246,4.395,-10.254
8.789,22.461,51.27,1.953,24.902
8.301,-81.543,22.461,2.93,33.203
15.625,-23.926,31.738,9.277,27.344
22.461,92.773,53.223,15.625,41.992
27.832,58.105,44.434,27.832,-4.883
23.438,4.883,21.484,20.996,-28.32
19.043,-19.043,10.742,2.441,44.434
29.297,34.668,11.23,8.301,90.82
29.297,26.367,10.254,20.508,28.32
19.531,3.906,8.789,22.461,51.758
16.602,3.418,8.301,23.926,72.266
12.207,-58.105,8.789,20.02,26.367
20.996,-12.695,8.789,9.766,8.789
21.973,88.379,16.113,8.789,3.418
17.09,71.289,6.836,14.16,-2.441
20.508,42.48,6.836,12.695,-17.578
17.09,-34.18,2.441,3.906,-22.461
17.09,-1.465,7.812,7.324,39.551
24.902,90.82,21.484,19.531,82.031
26.367,52.246,15.625,16.602,22.461
12.207,12.207,0.488,2.441,15.625
8.789,-58.105,-10.742,-0.977,68.848
18.555,-65.918,-3.418,-0.488,15.625
21.484,78.125,15.137,11.23,-30.762
19.531,105.957,19.043,17.578,10.742
18.555,53.223,8.301,6.348,-6.836
17.09,2.93,-1.465,5.371,-5.371
20.508,23.926,4.883,0.488,45.898
28.32,87.891,14.648,8.301,39.062
26.367,84.473,24.902,20.02,6.836
25.391,68.359,33.203,23.926,30.273
21.973,4.883,16.602,10.254,62.012
16.113,-24.902,11.23,-4.395,83.496
21.973,34.668,20.508,10.742,48.34
24.902,54.199,31.738,15.137,-16.602
4.395,52.734,34.18,2.441,6.348
-8.789,5.371,25.879,-5.371,57.129
3.906,-40.039,30.273,-2.93,101.562
8.789,24.414,38.086,-5.371,28.809
10.742,54.688,37.109,0,-17.09
2.441,49.805,43.457,1.465,15.625
-8.301,4.395,37.598,4.395,8.301
0,-79.59,21.484,5.371,3.418
8.789,-0.488,32.715,3.418,24.902
11.719,51.27,33.203,10.254,9.277
5.371,62.012,27.832,3.418,-11.719
1.465,68.359,38.574,5.859,29.785
5.859,-50.293,30.762,0.488,12.695
12.207,35.645,33.203,-7.812,-3.906
8.789,192.871,44.922,-5.859,8.789
0.977,213.379,49.805,-8.301,0.488
-4.883,191.895,43.945,-7.324,-11.719
-15.137,211.426,21.484,-15.625,-32.227
-7.324,349.121,36.621,-11.719,-38.574
-3.906,438.965,54.688,-1.465,12.207
-13.184,433.105,46.875,-6.348,38.086
-21.973,399.902,41.016,-14.16,39.062
-15.625,352.051,31.25,-16.602,71.777
-0.977,389.16,32.227,-24.414,62.012
6.348,514.648,54.688,-12.207,31.738
-8.301,486.816,47.852,-6.836,8.789
-23.926,414.551,31.738,-13.672,-10.742
-14.648,348.633,23.438,-14.648,-19.531
-6.348,363.281,31.738,-19.531,9.277
-0.977,421.875,37.109,-14.648,16.602
-1.953,379.395,29.785,-10.254,-9.277
-15.137,337.891,34.18,-9.766,4.883
-21.973,286.133,22.461,-13.184,-1.953
-13.672,254.395,11.719,-32.227,-14.16
0,325.195,19.043,-21.973,45.41
7.812,341.797,23.926,-6.836,61.035
-5.859,311.035,23.438,-10.742,19.531
-5.371,209.473,18.555,0,31.25
11.719,140.625,13.184,0.488,64.941
9.277,264.16,25.879,1.953,70.312
11.719,281.738,33.203,17.09,21.484
11.23,227.539,32.227,11.719,-0.977
8.789,168.945,36.621,4.395,38.086
10.742,138.184,33.203,9.277,58.594
15.625,181.641,37.109,13.184,69.336
16.602,166.992,30.762,12.207,90.332
14.16,135.254,21.973,8.301,62.5
16.113,85.938,23.926,9.277,15.625
16.113,61.035,25.879,9.277,17.578
26.855,120.117,26.855,15.137,16.602
24.902,150.391,26.367,14.648,19.043
8.789,133.301,26.367,11.719,64.453
9.277,95.215,22.949,12.207,82.52
17.09,-41.992,15.137,7.324,36.621
19.043,-9.766,21.973,-0.488,7.812
21.973,109.863,35.156,12.695,-16.602
20.508,70.312,36.133,18.066,-53.711
19.043,2.441,30.273,17.09,-32.227
18.066,-24.902,22.949,12.695,8.301
25.391,22.461,30.762,10.254,-23.926
37.598,77.637,38.086,24.414,-15.625
35.156,93.75,42.48,30.273,3.418
23.438,80.566,44.922,30.762,60.059
20.508,15.137,35.156,27.344,80.078
24.414,19.043,32.227,21.973,22.949
34.668,36.133,38.086,27.344,31.25
37.598,-31.738,41.016,34.668,7.812
29.297,-67.871,42.48,33.203,-27.344
20.996,-168.945,22.949,21.973,17.09
24.902,-205.078,23.438,16.113,79.59
36.133,-116.211,37.598,25.879,57.617
32.227,-97.656,43.457,34.668,23.438
22.949,-110.84,40.039,27.832,27.832
17.09,-221.191,17.578,14.16,3.906
22.461,-264.648,14.16,8.301,-26.855
34.18,-110.84,34.18,17.578,14.16
38.086,-84.961,36.621,31.25,48.828
33.691,-111.328,34.668,33.691,114.258
24.414,-184.082,20.508,28.32,83.984
28.809,-205.078,19.531,21.973,6.836
40.527,-119.141,31.738,29.297,35.156
41.504,-138.184,22.949,38.086,41.016
31.25,-136.719,23.926,31.738,23.438
23.926,-147.461,28.32,21.973,75.684
26.855,-221.191,20.508,17.09,94.238
32.227,-127.93,28.32,19.531,38.574
30.762,-57.617,39.551,26.855,-4.883
34.668,-86.914,45.41,38.574,-18.555
29.785,-157.227,34.668,37.109,-57.617
19.531,-193.359,23.438,26.855,-64.453
20.02,-98.145,34.668,22.949,31.25
29.785,-53.223,38.574,27.344,55.664
31.738,-77.637,37.109,30.273,37.109
24.414,-150.391,23.438,17.09,62.012
25.391,-187.012,15.625,13.672,10.742
33.691,-89.844,38.574,20.996,24.414
37.598,-39.551,45.41,26.855,45.41
34.18,-51.758,34.668,24.902,45.898
27.832,-83.496,27.832,26.855,35.156
24.902,-186.035,12.207,18.066,9.766
29.785,-139.16,16.602,12.207,-1.465
38.086,-9.766,33.691,25.391,0
32.715,-27.344,27.832,27.344,-27.832
22.949,-82.031,24.414,26.855,-71.289
21.973,-123.047,26.855,23.926,-62.5
23.926,-98.633,22.461,19.043,-58.105
30.273,-21.973,27.832,16.602,4.395
27.832,13.672,35.156,17.09,38.574
21.973,15.137,41.016,24.902,61.035
18.555,-104.004,23.438,16.602,44.434
19.043,-131.836,16.113,8.789,13.672
28.32,16.602,39.551,22.949,30.762
22.461,35.156,41.504,22.461,51.27
15.137,11.23,34.18,22.949,38.574
13.184,-32.227,32.227,24.414,45.898
18.066,-42.48,32.227,19.531,33.203
25.879,1.465,34.668,25.391,-24.414
19.043,6.348,32.227,19.043,48.34
16.602,-7.812,33.203,15.137,98.633
11.719,-80.078,18.066,8.789,44.922
17.578,-63.477,19.531,11.719,24.414
27.832,45.41,37.598,20.508,56.641
32.715,51.27,36.133,25.391,49.805
30.273,35.645,38.574,31.738,27.832
26.367,-46.387,20.02,25.391,27.832
25.391,-102.051,9.277,10.254,-10.254
23.438,16.113,31.738,3.906,21.973
22.461,61.035,41.992,14.16,28.32
17.578,32.227,34.668,13.184,43.457
14.648,-43.457,18.555,7.812,68.359
17.578,-116.211,15.137,2.441,37.598
26.855,-26.367,27.344,6.348,3.418
30.273,54.199,38.574,17.09,40.039
26.367,43.457,38.086,17.09,49.316
26.367,-17.578,26.855,19.043,-51.758
26.855,-50.781,30.762,20.02,-17.578
34.18,12.207,40.039,22.461,69.336
45.898,43.457,41.016,36.621,30.273
42.969,31.25,36.133,40.527,-24.902
32.715,-0.977,30.273,32.227,-36.133
26.855,-39.062,23.926,24.902,-4.395
31.25,-33.691,29.297,21.973,-1.465
31.738,25.879,38.574,23.926,-8.789
25.879,64.941,41.992,30.273,35.156
27.344,54.199,42.969,29.297,48.828
22.461,-47.363,27.344,20.02,30.762
28.32,-70.801,24.414,12.207,13.184
27.832,55.664,37.109,10.254,20.02
17.578,83.496,39.062,10.254,52.734
16.602,35.645,37.109,11.719,1.465
14.648,-17.09,30.762,11.23,-16.602
17.09,-10.254,34.18,16.113,-2.441
16.602,51.758,41.992,19.043,32.227
16.602,30.762,35.645,16.602,37.109
17.578,20.02,36.133,20.508,22.949
14.648,-40.039,29.785,14.16,63.477
15.625,-75.684,24.414,6.836,34.668
20.02,59.57,38.574,15.625,40.527
25.391,73.73,43.457,23.438,43.457
21.973,31.738,41.992,21.484,-32.227
10.742,-10.742,29.297,17.578,23.438
11.719,-22.461,20.02,15.625,88.867
20.02,38.086,21.973,19.531,22.949
17.09,56.152,23.438,19.043,17.578
8.301,38.086,19.043,14.16,-12.695
10.742,-35.645,13.184,17.09,-11.719
14.648,-94.727,6.836,7.812,-27.832
20.508,21.484,17.09,9.766,-45.41
17.578,91.797,22.949,22.461,2.93
18.555,65.43,18.555,26.367,-27.344
18.066,2.441,11.23,18.066,-42.48
5.371,-24.902,11.23,7.812,-12.695
9.766,49.316,22.949,6.348,34.18
18.066,66.406,27.344,11.23,26.855
17.578,62.5,27.344,12.207,33.691
17.578,13.184,22.461,5.859,53.223
19.043,-24.414,18.555,5.371,68.848
18.555,-1.465,21.484,11.23,39.062
28.32,29.785,26.367,17.09,20.508
29.297,63.965,27.832,18.555,21.973
17.578,28.809,19.531,17.578,-6.348
18.066,-9.766,15.625,11.23,48.828
21.973,37.598,22.461,14.648,108.398
25.391,66.406,21.973,21.484,54.688
19.531,53.223,21.973,16.113,26.855
19.043,20.508,20.02,16.602,10.254
11.719,-25.391,9.766,10.254,23.438
4.883,5.371,20.02,0.488,53.223
15.625,62.5,30.762,8.301,61.523
18.066,32.715,24.902,8.789,65.918
10.254,0.977,16.113,1.465,37.598
5.371,-37.109,3.906,0.488,50.293
10.254,-50.293,0,-0.977,4.883
22.461,33.203,14.16,3.906,32.227
23.438,62.5,25.391,20.996,38.574
12.207,53.711,30.762,19.043,14.648
7.812,-36.133,17.578,10.742,37.109
15.625,-105.469,10.742,2.441,8.789
26.855,34.18,31.738,6.348,14.16
27.832,98.145,37.109,18.555,27.344
24.414,63.477,35.156,24.902,-0.488
14.648,-39.062,19.531,21.973,0.977
14.648,-59.082,17.578,11.719,70.312
27.344,60.059,34.668,17.578,70.801
34.668,81.543,34.18,22.949,50.293
24.414,74.707,31.738,17.578,106.934
14.16,4.883,26.855,21.484,59.082
13.184,-29.785,24.902,23.438,45.41
16.602,40.527,28.809,21.484,66.406
25.391,67.871,36.621,29.297,46.875
25.391,63.965,42.48,33.203,85.449
13.672,-1.953,31.738,30.762,82.52
6.836,-53.223,18.555,18.066,25.391
16.602,-17.578,27.832,17.578,25.879
20.996,28.32,39.062,31.738,54.688
13.184,46.387,32.227,25.391,-1.465
6.348,3.418,21.484,14.648,8.301
5.859,-43.457,16.602,13.672,42.48
13.672,8.301,26.855,18.066,45.898
20.02,42.48,36.133,27.832,61.035
20.508,45.898,34.668,25.879,18.555
16.113,23.926,19.531,18.066,56.152
7.324,-39.551,18.555,8.789,67.871
11.23,-11.23,24.902,9.766,34.668
20.996,48.34,26.367,21.484,111.328
17.578,3.418,25.879,15.625,82.031
13.672,-21.484,12.207,7.324,3.906
10.742,-87.891,-1.465,7.324,14.648
8.789,-99.121,10.254,0.977,-25.879
20.508,75.195,33.691,9.277,5.371
20.996,100.586,35.156,18.066,67.871
14.648,26.367,32.715,12.695,25.879
9.277,-13.672,18.066,6.836,31.738
17.09,-26.367,14.648,16.113,72.266
22.949,10.742,20.996,19.531,39.062
14.16,56.641,21.484,8.789,22.949
12.695,32.227,22.461,13.184,-13.184
9.766,-43.457,15.625,13.672,-50.293
5.371,-42.969,7.324,8.301,-7.324
19.531,41.992,22.461,15.625,-0.977
24.414,71.289,31.25,23.926,-14.648
7.812,51.27,19.043,22.949,-22.461
5.371,-24.902,13.184,12.207,-19.531
13.184,-31.25,13.184,7.812,-16.113
22.949,38.086,27.832,20.508,-16.113
22.461,47.363,37.109,26.855,15.137
13.672,50.781,21.484,14.16,32.715
19.531,-33.691,14.16,19.043,12.207
16.602,-93.262,13.184,12.207,24.414
17.578,-16.602,14.648,6.348,28.809
22.949,33.691,29.785,20.02,30.762
12.695,60.547,37.109,16.602,11.23
8.789,-16.113,24.902,11.23,15.625
10.254,-105.957,15.625,7.812,56.641
8.301,-8.789,31.25,5.371,22.461
15.137,72.754,39.062,7.812,16.113
13.672,51.27,32.227,7.812,12.207
3.418,0.977,28.809,1.465,29.785
1.953,-43.457,22.949,-5.859,62.012
5.859,9.766,24.414,-8.789,67.383
3.906,43.457,33.691,-0.977,72.754
6.348,12.207,33.691,9.277,47.363
13.184,-16.113,25.391,12.207,13.184
-0.977,-97.168,20.508,-0.977,11.23
0.488,-32.227,35.156,-0.488,48.828
18.066,86.914,49.316,14.16,62.012
13.184,63.477,39.062,13.184,55.176
0.488,12.207,25.391,-2.93,-1.465
-5.371,-30.762,20.996,-9.766,-26.855
-3.906,2.441,21.484,-10.254,19.531
5.371,40.039,36.621,2.93,9.277
8.789,58.594,39.551,7.324,35.156
2.93,42.48,28.809,0,63.965
2.93,-42.969,24.414,0,22.949
10.254,-15.625,19.531,-1.465,9.277
20.996,86.426,26.855,5.859,25.391
22.461,81.543,32.715,14.648,57.617
8.301,74.219,33.691,11.23,54.199
-1.953,7.812,16.113,1.465,61.035
-1.465,-9.277,19.043,-4.883,61.523
8.789,107.422,32.227,0,33.203
10.742,125.977,32.715,11.719,55.664
6.348,116.699,32.227,17.09,44.434
4.395,77.148,26.367,5.859,57.129
0.488,56.152,27.832,-6.836,62.012
-0.977,66.406,25.391,-7.812,13.184
9.277,96.191,32.227,3.906,38.086
11.23,152.344,40.039,9.766,63.477
4.883,78.125,16.602,0.977,36.621
6.348,-20.996,0.977,-12.695,9.277
12.207,104.004,21.484,-6.348,1.465
17.09,180.176,26.855,6.348,36.133
14.16,160.156,35.156,11.23,52.734
5.859,99.609,17.578,7.812,26.367
3.906,50.781,5.859,4.883,-22.461
10.254,117.188,24.414,5.371,-2.93
13.184,154.297,27.344,4.395,45.41
15.137,133.301,20.508,11.719,49.805
11.719,76.66,13.184,6.348,32.715
-0.488,51.27,17.578,-4.395,-25.391
7.812,125.488,31.738,3.906,-19.531
20.508,167.48,36.133,8.301,22.461
14.648,148.926,29.785,5.859,-4.883
9.277,104.492,18.066,4.883,4.883
0.977,64.941,11.23,-9.766,18.555
10.254,81.055,14.648,-5.859,1.953
28.809,125.488,30.762,9.766,11.23
20.996,163.086,34.668,5.859,11.23
13.672,135.254,19.043,3.906,-32.227
15.625,2.441,8.301,0,-50.293
17.09,-1.465,19.531,-2.441,-35.645
22.949,165.527,41.016,8.789,-24.902
24.902,201.172,41.992,26.855,19.531
25.391,165.039,47.363,33.203,49.805
22.949,102.051,38.086,21.484,26.855
12.207,83.984,26.367,4.395,-24.414
19.043,126.953,36.133,14.16,-26.855
22.461,151.367,41.992,16.113,-13.184
7.324,124.512,27.344,-1.465,-27.344
2.93,74.219,30.273,-0.977,-25.391
9.277,69.336,49.805,7.812,17.09
10.254,87.402,41.992,13.184,6.836
12.695,106.934,33.203,13.672,6.836
10.254,150.879,42.969,-2.441,48.828
3.906,68.848,40.039,-7.812,80.078
7.812,5.371,37.109,-8.789,29.297
14.648,138.672,45.898,-0.488,27.344
22.461,173.34,46.387,11.23,54.688
22.461,139.648,51.758,17.578,10.254
12.695,88.867,45.41,14.648,56.641
5.371,47.852,37.109,-3.906,57.617
14.648,94.727,39.551,0,3.906
17.578,133.789,50.781,7.812,31.25
9.766,105.957,49.805,10.254,46.875
6.348,42.969,23.438,8.301,23.438
-1.465,36.133,20.996,-4.395,21.973
4.395,115.723,35.156,1.953,56.152
19.531,137.695,45.41,17.09,-7.812
16.113,146.973,43.945,15.625,-9.277
10.254,83.496,34.668,11.23,37.109
4.883,-5.371,18.555,-3.418,10.742
12.207,78.125,17.09,-1.953,6.836
25.391,147.461,33.203,12.207,-3.906
17.578,136.23,31.25,11.23,-7.812
14.648,86.914,21.484,13.184,19.043
12.207,13.672,14.16,10.254,39.551
11.23,31.738,18.066,11.719,17.09
18.066,111.816,29.297,22.949,21.973
12.695,132.324,24.902,23.438,52.246
1.465,85.938,21.973,19.043,72.266
-3.906,-19.043,9.277,6.348,62.012
-2.441,1.465,1.465,-0.488,36.133
11.23,101.562,20.508,13.672,21.484
13.184,95.703,28.809,16.113,11.719
7.324,64.941,24.902,14.16,3.418
-0.488,13.184,15.625,11.719,-3.418
-6.348,-4.395,4.883,3.418,-70.801
11.23,14.648,5.859,5.859,-79.102
21.484,58.105,23.926,18.066,-28.809
16.113,85.449,28.809,16.602,3.418
12.695,8.301,18.555,13.672,7.812
6.836,-18.555,17.09,6.836,-26.855
11.23,39.551,20.508,3.906,-18.555
19.531,53.223,31.25,9.766,12.695
13.184,47.852,21.973,8.789,28.809
5.859,0.977,28.32,8.789,27.344
6.836,-20.996,28.32,0,35.645
14.16,30.273,5.371,3.906,63.965
26.367,41.992,23.438,20.02,35.645
24.902,25.391,24.902,11.719,45.41
18.555,-20.508,17.09,6.348,88.867
23.438,-95.703,20.02,7.812,90.82
20.996,-12.695,33.203,1.465,34.18
8.789,109.375,48.34,-4.395,5.371
7.812,101.562,56.641,3.418,41.504
6.836,29.297,45.898,-2.441,42.969
1.953,-6.836,48.828,-9.277,22.461
10.254,49.316,71.777,0.488,61.035
18.555,70.801,77.637,5.859,94.727
25.391,72.754,96.191,26.367,42.969
28.32,25.879,97.656,33.203,19.043
8.301,-37.109,76.172,1.953,29.785
13.672,10.254,93.262,-5.371,29.297
34.668,93.75,104.004,15.625,31.738
23.926,117.676,100.586,5.859,45.41
18.066,62.988,97.168,4.395,44.434
23.926,-62.012,82.52,12.695,-18.066
17.578,-1.465,94.238,-10.254,-3.906
22.461,110.84,116.211,-8.789,48.34
30.762,102.051,134.766,3.418,35.645
26.855,77.148,156.738,12.207,25.391
16.602,39.062,162.109,8.301,50.781
14.648,17.578,167.48,-0.488,33.691
28.809,32.227,186.035,19.531,2.93
27.832,72.266,203.125,27.832,-4.883
16.113,83.496,207.52,13.672,42.969
12.207,21.973,203.125,16.113,-9.277
15.625,26.367,211.426,17.578,-18.555
24.902,89.844,222.168,17.09,15.137
23.926,108.887,213.379,20.02,-3.418
24.902,93.262,205.078,28.809,-28.809
25.879,-13.672,191.406,22.461,-66.406
20.508,-8.789,177.246,8.789,-12.207
27.832,102.539,175.293,19.043,17.09
30.273,113.77,172.363,21.973,54.688
20.02,94.238,161.621,17.09,71.777
20.02,-8.789,128.906,18.555,33.203
10.742,-40.527,123.047,5.859,20.996
12.207,89.355,135.742,4.395,44.434
28.32,125,136.23,27.832,62.988
18.555,82.031,119.629,26.367,12.695
10.742,26.367,95.215,17.578,-0.488
10.742,13.184,88.379,10.742,39.062
12.207,49.805,83.008,10.254,25.391
19.043,80.078,81.055,20.996,10.742
18.555,65.918,81.055,20.996,-2.441
6.348,-0.488,56.641,14.648,-9.766
3.418,-45.41,39.062,6.836,21.484
14.648,-23.438,45.898,9.277,-22.461
24.414,47.363,56.641,21.973,5.859
17.578,83.984,54.199,23.926,98.633
7.812,6.348,39.062,16.113,103.027
11.23,-41.016,38.086,22.949,71.777
16.113,4.883,35.156,24.902,36.133
19.043,25.879,28.32,24.414,18.066
14.648,30.762,29.297,19.043,-8.789
9.277,-4.883,18.555,10.742,65.918
11.719,-64.941,8.789,10.742,68.359
11.719,-40.039,10.254,9.766,18.066
16.113,-18.066,1.465,15.625,63.477
20.996,-8.789,5.371,17.09,62.012
18.066,-14.16,26.367,10.254,40.527
8.789,-119.629,3.418,3.906,46.875
5.859,-114.746,-12.207,-5.371,41.016
18.066,19.531,14.648,5.859,12.207
30.762,37.598,20.02,25.391,-2.93
25.879,-20.996,11.23,26.367,-12.207
18.066,-56.152,3.418,21.484,-2.93
15.625,-37.598,1.953,16.113,-44.434
21.973,4.395,8.789,17.578,-71.777
24.902,32.715,15.137,17.09,-25.391
21.973,0,13.672,21.973,-2.93
22.461,-87.891,1.953,25.391,13.672
13.672,-93.262,-8.789,11.23,8.789
20.996,28.32,0.977,13.184,21.484
24.414,73.73,4.883,16.113,60.059
21.484,37.598,4.395,23.438,29.297
24.414,-14.648,0.488,21.484,18.066
18.555,-21.484,-6.836,15.137,45.898
29.297,23.438,3.906,27.344,77.148
36.133,29.297,9.766,25.391,71.777
26.367,23.926,0.977,16.113,76.66
20.996,-21.973,-13.184,15.137,23.438
17.09,-70.801,-13.672,6.836,0.977
21.973,-41.992,-1.953,1.465,44.922
26.855,22.949,5.371,7.812,7.812
20.02,65.43,7.812,20.02,50.781
22.461,-20.508,-6.836,20.996,22.949
20.508,-50.293,-10.742,7.812,16.113
15.625,5.859,-3.906,-5.859,73.73
28.809,32.715,-0.488,6.836,51.758
46.875,58.594,-0.977,36.621,16.602
21.973,-18.555,-1.953,18.555,6.836
-25.879,-93.75,-2.93,-27.832,0.488
-25.391,-19.043,2.441,-23.438,-0.488
-9.277,0,10.254,-7.812,7.324
-27.344,2.93,7.324,-22.461,19.531
-40.039,14.648,7.812,-21.484,67.383
-36.621,-98.633,-7.812,-25.879,61.035
-36.621,-66.406,-3.906,-38.086,37.109
-21.484,58.105,15.625,-24.414,96.191
-15.137,44.434,15.625,-7.812,73.242
-18.066,-9.277,13.672,-6.348,16.113
-16.602,-44.434,3.418,-13.184,51.27
-10.742,-24.902,-2.441,-13.184,82.52
1.465,0.488,4.395,-6.348,54.688
10.254,11.719,7.324,1.465,5.859
0.977,-16.113,-1.465,5.371,21.484
-8.301,-93.75,-6.348,-8.301,47.852
-3.906,-91.797,0.977,-6.836,39.551
12.695,5.371,18.066,12.207,-12.695
17.578,66.895,19.043,8.301,23.926
8.789,51.758,2.441,4.883,96.68
2.441,-11.719,-1.953,3.906,105.469
3.418,-27.344,1.465,10.742,52.246
20.02,13.184,6.836,19.531,24.902
20.508,42.48,11.23,19.043,31.738
15.137,32.715,12.207,27.344,0.977
18.066,-0.977,12.695,29.785,18.555
11.719,-49.805,3.418,15.625,9.766
18.066,-33.691,-6.836,9.277,-13.184
30.762,31.25,-1.465,23.438,15.625
24.902,48.34,7.812,26.367,18.066
24.414,-40.527,-2.93,24.414,63.477
17.578,-97.168,-11.719,20.02,59.57
14.648,-0.977,4.395,18.555,-6.836
17.09,49.316,18.066,25.391,-4.883
8.789,46.387,19.531,23.438,42.969
4.883,-11.23,-4.395,14.648,33.203
3.418,-36.133,-19.043,12.207,-21.973
11.23,2.93,-4.395,19.531,35.156
19.531,-13.184,-3.418,18.066,2.441
16.113,20.02,6.348,24.414,-20.02
8.789,-4.395,11.719,31.738,20.996
0.977,-84.473,5.859,12.207,28.32
7.324,3.906,10.254,8.789,42.969
16.113,62.988,6.348,20.02,26.367
14.648,53.711,16.602,21.484,1.465
3.906,5.859,12.695,18.066,-39.551
-0.488,-26.855,2.93,6.836,5.859
3.418,-5.859,8.789,1.465,43.457
12.695,20.02,11.23,15.137,9.766
13.672,49.805,21.973,18.066,21.973
4.883,-1.465,18.066,15.625,48.828
2.93,-44.922,10.742,14.648,51.758
4.395,-13.672,6.348,0.488,-4.883
20.508,28.32,17.578,7.324,-13.672
22.461,66.895,24.414,12.695,47.363
17.09,46.387,18.066,10.254,71.777
19.043,-45.41,4.883,10.742,60.547
15.137,-40.039,-1.953,-3.906,44.434
14.648,43.945,15.137,0.488,44.922
23.438,59.57,22.461,15.625,75.195
22.949,31.25,13.672,15.625,56.152
10.254,-0.977,11.719,15.625,28.32
13.672,-35.156,12.207,18.066,24.414
19.043,7.324,15.137,15.137,59.57
20.02,71.777,21.973,15.625,69.336
25.391,67.871,24.902,29.297,22.461
20.02,-49.805,19.531,26.855,-2.441
7.324,-65.918,9.277,9.766,82.52
11.23,47.852,19.531,12.695,99.121
22.461,66.895,24.414,24.902,7.324
17.578,64.453,8.789,24.414,17.578
13.672,8.789,3.418,22.461,1.953
6.836,-11.719,2.93,8.301,-20.996
8.301,20.508,6.348,4.883,22.461
23.926,20.996,7.324,15.625,14.648
28.32,50.293,13.184,22.949,34.668
26.855,32.715,3.906,20.508,40.039
21.484,-2.441,6.836,10.254,11.719
16.113,24.902,19.531,5.371,4.883
24.414,53.711,10.742,16.113,-14.16
23.438,80.078,20.02,20.996,27.832
22.949,11.23,8.789,22.461,51.758
20.996,-45.898,3.418,19.531,10.254
19.043,-6.348,17.09,6.348,-13.184
24.414,35.156,22.461,6.348,0.977
23.438,48.828,25.879,21.484,-14.648
23.438,-17.578,14.648,21.973,7.324
19.531,-42.48,9.277,12.695,14.648
19.531,-23.926,15.137,5.371,-22.949
33.203,-3.418,15.625,16.113,-38.574
39.062,63.965,19.043,23.926,11.719
32.715,49.805,23.926,21.484,109.375
19.531,-98.145,-1.953,10.742,40.039
20.02,-63.965,10.254,5.859,75.195
32.227,61.035,28.32,17.578,104.98
31.25,50.781,15.625,17.578,-35.645
25.391,26.855,19.531,15.137,-38.086
20.996,-21.484,16.113,16.602,17.578
17.09,-51.27,3.906,6.836,48.34
21.973,-29.785,2.441,9.277,47.852
29.297,47.852,21.484,13.672,26.367
25.391,70.312,29.785,15.625,67.383
16.602,-65.918,7.812,12.695,22.949
10.742,-99.609,-2.441,2.441,-38.574
11.719,24.902,20.508,7.812,-20.996
24.414,72.754,28.32,10.254,13.672
20.996,68.359,24.414,12.695,32.227
10.742,20.02,20.02,13.184,55.664
13.672,-6.836,15.625,10.254,63.477
19.531,12.695,24.414,11.719,80.078
34.668,0,20.996,21.484,13.184
25.391,13.184,21.973,24.902,-32.715
13.672,4.883,23.926,20.02,29.785
14.648,-14.16,17.578,11.23,61.035
16.602,18.555,12.207,9.277,34.18
27.832,39.551,13.184,21.973,3.418
25.879,57.129,18.555,26.367,38.086
20.508,-32.227,12.695,13.672,49.316
15.137,-84.961,7.812,4.395,25.391
18.066,-0.488,17.578,11.23,6.836
29.785,48.34,28.32,18.066,4.395
26.367,74.219,28.32,15.625,64.453
16.113,-37.109,10.254,14.648,27.832
3.906,-95.703,0,1.465,24.902
-1.465,-8.301,11.23,-5.371,38.574
9.766,40.527,22.461,3.906,26.367
13.184,63.965,28.809,13.184,99.121
6.348,12.695,20.02,11.719,82.52
12.207,-26.367,15.625,10.254,56.152
31.738,-11.23,11.719,26.367,33.691
31.25,11.23,17.578,35.645,-6.836
13.672,40.527,24.414,20.996,10.742
16.602,-6.836,24.414,21.973,51.758
21.973,-46.875,20.996,31.25,28.32
19.043,-49.805,19.531,22.461,9.766
25.879,-17.578,19.043,20.508,11.23
29.785,56.152,21.484,32.227,3.418
24.902,27.344,13.672,30.273,-32.227
22.949,-90.332,-2.93,13.184,-53.223
29.297,-62.012,7.324,12.207,-33.691
34.18,33.203,28.809,20.508,4.395
33.691,47.852,27.832,19.043,9.277
34.18,9.277,21.973,25.391,-26.367
32.715,-20.508,20.996,29.297,28.32
25.879,-5.859,20.508,23.438,80.566
30.273,-10.254,19.531,21.484,47.852
39.062,-15.625,20.02,25.391,11.719
35.645,-5.371,22.949,25.879,2.93
27.344,-53.223,17.09,20.508,31.25
12.207,-54.199,9.766,17.09,57.617
12.207,34.668,24.414,10.742,90.82
21.973,50.781,22.461,11.719,61.523
19.531,45.898,16.113,27.344,25.879
18.066,7.812,13.672,24.414,24.902
20.02,-14.16,15.137,15.625,35.156
22.461,-7.324,23.926,13.672,21.973
29.785,25.879,21.973,19.043,37.598
33.203,39.551,24.902,30.273,33.203
26.855,-58.594,18.066,26.855,5.371
17.578,-76.66,9.766,12.695,11.23
18.555,10.742,21.973,17.578,26.367
30.762,28.809,26.855,24.414,24.902
28.809,54.199,27.832,27.344,-47.363
20.996,-2.441,20.996,29.785,-42.969
15.137,-37.598,19.531,20.508,6.836
21.484,21.484,24.414,17.09,75.684
25.879,37.598,25.879,20.508,80.078
20.996,52.246,27.344,32.715,44.434
21.973,18.555,22.461,33.691,55.176
16.602,-32.715,15.137,23.438,11.23
10.742,-40.527,10.742,16.113,-22.949
20.996,4.883,20.996,13.184,32.715
28.809,68.848,32.715,22.949,61.035
22.949,23.438,31.25,26.367,37.598
17.578,-23.438,14.16,23.926,17.578
16.113,-8.789,10.742,15.137,29.297
20.02,8.301,15.137,11.719,68.359
23.438,64.453,21.973,16.113,89.844
21.484,36.133,25.879,25.879,83.008
10.254,-50.293,11.23,16.113,79.102
3.418,-26.855,11.719,0.488,36.621
16.602,20.996,15.137,11.719,-24.414
30.762,26.855,19.043,20.996,-1.953
20.508,23.926,25.879,19.043,-3.906
5.371,-45.898,11.23,13.184,16.602
-2.441,-40.527,7.812,0.488,45.898
2.441,39.551,23.926,-3.418,15.137
17.09,63.477,31.738,8.301,22.461
10.742,50.781,27.832,3.906,41.504
3.418,-0.977,19.043,-11.23,54.688
4.395,-25.879,13.184,-15.137,66.406
7.324,-1.465,10.742,-9.766,41.016
14.648,30.762,18.555,-0.977,-14.16
18.066,35.645,22.461,12.695,-31.25
13.184,-50.293,8.789,2.93,-25.391
0.977,-62.988,7.324,-6.348,-2.93
7.812,-13.672,18.555,5.859,-2.441
17.09,20.02,27.832,2.441,-7.812
14.16,56.152,37.598,9.766,4.395
10.254,-15.625,24.414,12.207,47.363
6.348,-44.922,13.184,4.883,101.562
12.207,-18.066,19.043,10.742,51.758
27.344,9.766,24.902,22.949,6.836
35.156,37.598,31.738,33.203,16.602
32.227,-21.484,34.18,30.762,-4.883
21.484,-62.988,28.809,22.949,-5.859
10.254,-73.242,21.973,12.695,-29.785
13.672,-23.438,30.762,11.23,-0.488
25.391,69.336,45.898,15.625,70.801
26.855,-3.906,27.832,20.996,48.828
15.137,-91.797,8.301,5.371,9.277
10.742,-23.926,25.391,-3.906,9.277
21.484,27.344,30.762,12.695,15.625
24.414,45.41,31.25,17.578,22.461
13.672,-3.906,17.09,11.23,-7.812
10.254,-35.156,14.648,8.789,6.836
13.672,-11.23,20.02,0,29.785
27.344,-3.418,15.137,11.719,-4.883
31.25,26.367,17.578,19.531,43.457
23.438,-4.395,12.695,10.254,37.598
13.672,-70.312,-0.488,5.371,34.18
11.23,-20.02,10.742,0.977,90.82
23.438,30.273,9.277,7.324,54.199
35.156,42.969,15.625,16.602,15.137
29.785,25.879,19.531,20.02,4.883
25.879,-21.484,8.301,24.902,-2.93
18.555,-12.207,12.695,21.973,43.457
22.949,4.395,24.414,20.508,74.219
34.18,32.715,31.25,26.855,71.289
22.949,18.066,19.531,20.996,21.484
20.02,-36.621,17.578,13.672,20.02
18.066,-49.316,26.367,11.23,24.414
19.043,-1.465,31.25,16.602,1.465
35.156,25.879,32.715,23.926,40.527
22.461,7.812,31.25,13.184,26.855
6.836,-18.066,19.531,14.16,-11.719
1.465,-24.414,19.531,3.906,0.977
4.883,-1.465,21.973,-11.719,54.688
20.996,12.207,29.785,10.742,-26.855
17.578,36.621,38.086,18.555,-53.223
10.742,-6.836,30.762,13.672,-1.465
8.301,-40.527,27.344,12.695,22.461
10.254,-36.133,27.344,1.953,51.758
20.996,4.883,33.691,3.906,32.715
26.367,62.988,34.18,11.719,19.531
21.484,7.324,20.02,10.254,26.367
16.602,-24.902,22.949,18.555,23.438
14.16,-7.324,24.414,20.02,23.926
17.09,-6.348,25.879,16.602,4.883
20.02,54.199,41.992,34.18,11.719
16.602,8.301,33.691,37.109,32.715
15.625,-97.656,13.184,14.648,-0.488
8.301,-37.598,21.484,5.859,-68.848
8.789,38.086,29.297,13.184,-29.297
23.438,41.016,35.156,20.508,-4.883
26.855,4.395,36.621,26.367,-21.484
9.277,-49.316,14.648,12.207,8.789
8.301,1.465,19.531,3.418,41.016
21.484,55.176,30.762,10.254,35.645
22.949,74.707,31.738,14.16,44.434
20.996,36.621,26.855,24.902,43.457
11.23,-13.184,9.277,22.949,15.625
-2.441,-22.461,13.672,9.277,24.902
13.672,3.906,25.391,12.695,61.035
29.785,55.664,33.691,24.902,37.598
23.926,43.945,22.461,20.508,31.25
16.113,-23.926,18.066,23.926,23.926
9.766,-44.922,17.578,13.184,-3.418
16.113,-0.977,12.695,1.465,21.973
27.832,50.293,21.973,22.949,84.473
20.996,50.781,25.879,22.461,85.938
20.02,-50.293,8.301,18.066,86.914
13.184,-80.078,-1.465,8.789,10.742
17.09,0.488,12.207,12.695,-77.637
32.227,48.34,23.926,24.902,9.277
28.809,54.688,22.949,27.832,60.547
28.32,7.812,14.648,31.738,51.27
20.508,-32.227,6.348,21.484,66.406
19.043,-37.598,10.742,14.16,48.34
29.297,31.738,20.508,22.949,68.848
24.902,95.215,24.902,25.391,101.074
16.113,-13.672,9.766,3.418,48.828
10.254,-60.547,-8.301,-6.836,42.969
12.695,19.531,14.648,0,46.387
23.438,39.062,25.879,5.859,22.461
21.973,57.617,18.555,11.719,31.738
21.973,20.996,21.973,11.719,23.438
19.043,-10.254,22.461,8.789,10.254
17.578,-15.137,15.625,3.906,3.418
26.855,4.395,36.621,10.254,0.977
30.762,18.555,44.922,23.926,16.602
19.531,-37.109,18.555,14.16,-9.766
13.184,-26.367,14.648,7.812,13.184
14.16,9.277,16.113,8.789,34.668
22.949,25.879,25.879,7.812,37.109
28.32,62.5,35.156,19.043,30.273
26.367,-4.883,21.484,22.461,-40.039
26.367,-28.32,17.578,12.207,-5.371
25.391,3.418,19.531,7.324,29.297
34.668,-0.488,22.461,19.043,-2.93
35.645,41.992,28.809,26.367,37.598
30.273,17.578,34.18,33.691,50.781
28.32,-106.934,20.996,15.625,5.859
19.043,-80.566,20.02,-4.883,10.254
27.344,31.738,37.598,14.648,28.809
45.898,68.848,38.086,33.691,101.074
38.086,38.574,27.832,31.738,94.727
28.809,-10.742,22.949,20.02,4.883
25.879,-6.836,30.273,15.137,15.625
33.691,-3.906,30.273,17.578,29.785
44.922,36.621,34.18,27.832,13.672
38.574,38.574,36.133,30.762,8.301
37.598,-10.742,30.273,32.227,-5.859
26.367,-31.738,24.414,24.902,13.672
19.043,-48.828,19.043,20.508,45.41
36.621,-25.879,24.902,32.715,9.277
32.227,48.828,34.668,34.18,45.41
20.996,-34.18,17.09,19.043,54.199
18.555,-83.008,19.043,14.648,7.324
17.09,4.883,34.18,20.508,43.457
31.25,10.254,22.949,23.926,35.645
30.762,29.785,19.531,28.809,27.344
22.461,-1.465,23.926,22.461,5.371
29.785,-26.855,12.695,19.531,-2.93
28.32,-21.973,11.23,24.902,24.414
32.715,-9.277,25.391,21.973,10.742
35.156,15.625,25.391,24.902,13.184
20.02,-44.922,15.137,25.879,3.418
13.672,-63.965,11.23,6.836,60.547
19.531,-8.789,20.508,9.277,50.293
25.391,17.09,29.785,25.879,3.418
23.438,50.781,30.273,26.367,20.996
25.391,1.465,25.879,26.855,-32.227
16.602,-27.344,27.832,14.648,-56.641
12.207,-35.645,27.832,7.812,13.184
18.555,-25.879,25.879,6.836,29.297
19.531,47.363,21.484,5.859,23.926
24.902,6.348,26.367,20.996,9.766
22.461,-62.012,24.414,16.602,-11.23
14.648,-66.406,6.836,7.812,11.23
20.02,-28.809,13.184,8.301,-26.855
26.855,39.551,33.203,10.742,-47.852
28.32,-0.488,25.879,16.602,-27.832
18.066,-51.758,12.207,10.742,0.488
11.719,-10.742,19.531,8.301,41.016
16.113,4.395,29.785,11.719,39.062
20.996,41.992,34.668,17.578,13.184
20.02,30.762,26.855,20.996,-11.719
20.996,-62.988,22.461,16.602,15.137
12.695,-52.246,23.926,6.348,11.719
10.742,4.395,27.832,3.418,29.785
23.438,47.363,39.062,16.113,71.289
20.508,76.172,35.156,20.02,85.938
12.207,30.273,23.438,4.883,70.312
10.254,28.32,27.344,3.418,102.539
18.066,17.09,23.926,6.836,83.008
26.367,33.203,29.297,6.348,40.527
23.926,57.617,33.691,20.508,26.855
23.926,-33.203,21.973,25.879,12.695
13.184,-45.898,23.438,14.16,10.254
13.184,8.301,25.391,13.672,-3.418
23.438,22.949,24.414,17.578,6.836
30.762,37.598,36.621,27.832,52.734
22.949,-45.898,11.23,17.09,29.785
6.836,-55.664,11.719,-1.465,26.367
16.602,25.391,36.133,1.465,50.781
26.855,42.969,29.785,10.742,21.973
28.32,58.594,23.926,19.531,23.926
24.414,21.973,21.973,17.09,-23.926
15.137,2.441,24.414,13.672,-44.922
17.09,14.16,27.344,13.672,38.574
20.02,37.109,28.809,18.555,96.68
18.066,59.082,23.926,18.066,60.547
21.973,19.043,32.227,20.02,20.996
15.625,-23.438,31.25,19.043,15.137
13.184,-38.574,25.879,17.578,-1.465
17.09,23.438,32.227,13.672,37.598
23.926,95.703,33.691,16.602,69.336
29.785,10.742,33.203,28.32,29.297
20.02,-42.969,23.438,11.719,29.785
12.207,21.973,25.879,0.977,25.391
22.461,56.152,27.832,13.184,54.199
31.738,81.055,20.996,23.926,67.383
22.461,49.805,23.926,29.785,81.055
11.719,18.066,27.344,23.926,100.098
8.301,9.766,26.367,13.184,45.41
19.043,-11.23,26.855,17.578,55.664
26.855,40.039,42.48,25.879,31.738
18.066,42.48,36.133,22.461,7.812
6.836,-10.742,17.578,13.672,5.371
0,-8.789,21.484,7.324,-25.391
4.883,11.719,23.438,8.301,42.969
11.23,46.387,32.715,3.906,97.656
11.23,48.34,28.32,9.277,65.43
2.93,-18.066,15.137,1.953,41.504
-0.488,-18.066,24.414,-4.395,15.137
5.371,16.113,34.18,9.277,10.254
16.602,33.691,33.203,11.719,14.648
20.02,39.551,37.109,8.789,-2.93
6.348,-21.484,23.926,4.395,40.039
5.859,-22.461,23.926,-0.977,-2.93
14.648,57.617,41.016,-3.906,34.668
16.602,83.984,43.457,-3.418,99.121
18.555,92.285,46.387,12.695,88.867
15.137,55.664,47.363,20.508,38.086
11.23,20.508,44.922,13.184,-16.113
4.883,0.977,30.273,0.488,-19.531
13.672,8.789,37.598,1.465,-44.434
26.367,64.941,50.781,11.719,-29.297
21.973,65.918,52.246,14.16,25.879
12.207,0.488,45.898,12.695,3.418
6.348,-1.465,46.387,5.371,-14.648
7.324,59.57,53.711,4.883,29.297
14.16,109.375,62.5,15.137,26.855
12.207,66.895,50.293,12.207,56.641
4.883,25.391,39.551,6.348,58.105
-2.441,42.48,46.875,0.977,83.984
0,44.922,55.664,0.977,99.121
0.977,80.078,60.547,-3.418,42.969
0.488,29.297,41.504,-3.418,-8.301
5.859,-2.441,40.527,-0.488,50.781
6.836,22.461,47.852,-4.883,85.938
15.137,0.977,40.527,-3.418,6.836
20.996,59.082,46.387,3.418,-21.484
21.484,57.129,50.781,13.672,37.598
16.602,6.348,45.898,7.324,77.637
11.23,38.086,39.062,-3.906,0
13.184,66.406,34.668,0.977,-12.207
22.949,88.379,42.969,8.789,-11.719
29.785,69.336,39.062,14.648,-27.832
14.16,44.922,35.156,14.648,11.23
8.789,43.457,36.621,9.277,10.254
24.902,50.293,38.574,16.113,12.695
29.785,81.055,43.945,24.414,1.953
30.273,53.711,49.316,24.414,-51.27
26.367,-5.859,36.621,14.16,-19.043
16.602,5.371,22.461,3.418,13.672
17.09,64.453,33.203,1.465,16.113
27.832,98.633,35.645,10.742,20.02
33.691,89.844,41.504,25.391,28.32
34.18,54.199,46.387,25.879,62.988
27.344,45.898,40.527,15.137,71.777
18.066,27.344,35.645,5.859,50.293
31.25,57.617,44.434,14.16,9.277
29.297,73.73,43.945,21.973,-26.367
11.23,37.598,37.598,19.531,8.301
13.184,-12.207,31.25,21.484,-2.441
16.113,-25.391,23.926,19.531,-82.52
22.461,55.176,44.922,7.812,21.973
29.785,102.539,45.898,15.625,79.59
20.02,1.465,21.973,13.672,31.25
11.719,-36.133,23.438,12.207,26.855
11.23,36.133,42.48,11.23,2.441
18.555,56.152,42.969,6.836,54.688
29.297,71.289,40.039,16.602,54.688
15.625,43.457,40.039,15.137,27.832
-2.441,9.766,28.809,0.977,28.809
7.324,-13.672,22.461,-2.93,-1.953
9.277,-30.273,19.531,-2.93,0
3.418,31.25,24.902,-5.371,6.836
7.812,11.23,28.809,4.883,-6.348
-2.93,-36.133,22.461,-2.93,9.766
-8.301,31.25,30.762,-11.23,93.262
4.883,45.898,38.574,9.277,110.352
14.648,52.246,40.527,14.648,83.496
16.602,14.16,31.738,9.766,64.941
16.113,-3.906,33.691,20.996,42.48
9.277,10.254,34.18,10.742,18.066
15.137,20.996,29.785,7.812,47.363
34.668,61.523,36.621,18.555,98.633
32.715,14.16,35.645,25.879,57.617
21.484,-15.137,39.062,23.438,8.789
19.043,10.742,34.18,8.301,-6.348
8.789,-4.395,23.926,5.371,24.902
14.648,40.039,34.668,15.625,43.945
22.949,36.133,34.18,18.066,0.977
13.184,-12.695,27.832,12.695,-44.434
11.23,-8.301,30.762,9.766,-94.727
14.16,4.883,25.391,11.23,-28.32
23.438,33.203,31.25,16.113,40.039
21.973,52.734,44.922,24.902,33.691
11.719,-2.441,38.086,20.02,36.621
8.789,-32.715,25.391,6.836,37.109
9.766,-8.301,37.109,7.812,34.668
20.996,41.992,44.434,15.625,51.27
21.973,66.895,41.504,19.531,3.418
20.508,-23.926,25.879,23.438,-26.367
20.508,-26.855,19.043,16.602,52.734
15.137,24.902,23.926,2.441,31.738
27.832,39.551,31.25,16.113,20.508
36.621,82.031,39.551,26.855,73.242
30.273,34.668,28.32,24.414,-5.859
25.879,20.02,18.555,17.09,25.879
18.066,-5.371,20.508,7.812,69.824
20.996,-31.738,21.973,12.695,11.719
30.762,33.691,31.738,25.879,22.949
33.691,2.441,27.832,32.715,18.555
20.508,-14.16,25.391,16.113,14.648
11.23,44.434,38.574,1.953,55.176
18.555,39.551,36.621,8.301,21.973
30.762,67.871,36.133,20.02,3.418
29.785,44.434,36.133,16.113,3.418
23.926,23.438,39.062,11.23,-4.883
20.508,27.832,41.992,10.742,62.5
18.555,13.672,29.297,9.277,54.688
31.25,52.734,35.645,27.832,57.617
31.738,11.719,34.668,22.461,83.008
22.949,-6.836,34.668,10.742,40.527
18.066,-3.418,34.668,16.602,7.324
21.973,-23.438,24.414,17.09,1.465
26.855,56.152,38.086,20.02,17.09
30.273,18.555,37.598,31.25,-19.531
18.066,-41.504,25.391,24.902,14.648
6.836,-4.395,28.32,19.531,66.895
15.137,-7.812,30.273,20.508,50.293
18.555,30.273,28.809,17.578,89.844
19.531,18.555,25.391,21.484,80.566
12.695,-8.789,19.043,18.555,65.918
7.812,-17.578,13.672,11.23,88.867
15.625,-37.598,12.695,7.324,50.781
21.973,28.32,25.879,12.695,33.203
18.066,64.453,32.715,16.113,34.668
17.578,-13.184,24.902,18.066,119.629
16.602,-19.531,37.598,16.602,94.727
7.812,25.879,34.18,11.23,8.789
11.23,26.367,22.461,13.672,24.902
23.926,46.875,24.902,26.367,31.25
16.113,22.461,22.461,15.625,23.926
2.93,11.23,28.809,-0.977,25.391
2.93,-8.789,22.949,-1.465,-5.859
14.648,-31.738,12.695,2.441,-64.941
25.879,32.715,41.016,12.207,-17.09
17.09,28.809,26.855,10.254,20.508
5.859,0.488,4.395,2.93,-25.391
3.906,9.766,15.137,-3.418,-1.465
12.207,18.066,19.043,0,15.625
21.484,62.988,25.391,11.719,-14.16
17.578,40.039,20.508,7.324,15.625
4.395,9.277,10.742,0,10.742
-2.441,12.207,9.277,0.488,9.766
6.836,27.344,20.996,2.93,57.129
16.602,60.059,30.273,10.254,15.625
16.113,4.883,21.484,13.672,-10.742
20.02,-61.035,25.391,10.742,23.438
1.465,8.301,28.809,-4.395,45.41
-3.418,72.754,34.18,-7.324,48.34
20.508,86.914,38.086,11.23,44.922
14.16,59.57,23.438,9.766,13.184
4.883,45.898,22.461,0.488,3.906
7.324,42.969,27.832,-0.488,3.418
7.324,45.898,31.25,2.93,33.203
22.461,72.754,31.25,7.812,78.613
17.578,50.781,26.855,4.883,46.387
4.883,56.641,28.809,6.836,36.621
5.371,39.551,36.621,2.441,44.434
11.23,27.832,23.926,-1.465,46.387
17.09,96.68,29.297,0.977,70.312
21.484,83.008,36.621,9.277,29.785
21.484,0,31.25,11.719,11.719
7.812,34.668,40.527,-0.977,49.805
8.301,53.223,37.598,-8.301,29.785
20.508,76.66,45.41,-11.23,31.25
25.879,76.66,49.316,-4.395,-9.277
19.531,42.969,43.457,5.859,-42.48
8.789,53.223,41.016,-0.977,0.977
9.766,34.18,42.48,-3.418,-8.789
22.461,32.715,41.992,10.254,-0.977
17.09,46.387,30.273,6.348,10.254
9.766,49.316,37.109,-8.301,-4.395
3.418,58.594,42.48,-10.742,-13.184
3.418,46.875,35.156,-5.371,35.156
14.648,56.152,33.691,-1.465,-2.441
16.602,90.332,40.039,-3.418,-1.465
16.602,50.293,38.086,0.488,22.461
10.254,22.949,29.785,0,9.277
3.906,21.973,27.344,-2.441,21.484
10.254,39.062,37.109,1.953,63.477
18.066,76.66,38.574,-3.418,60.547
20.996,8.301,21.484,-0.488,25.879
18.555,-48.828,20.02,-5.371,25.391
16.113,3.418,27.344,-7.812,37.109
23.438,34.18,30.762,-1.465,17.578
22.461,83.496,29.785,-4.883,-13.184
20.02,67.383,23.926,0,-11.23
16.602,36.621,25.879,2.441,13.184
13.184,27.832,23.438,3.906,57.617
19.531,27.344,32.715,6.836,80.566
21.484,62.5,29.297,5.371,77.637
20.02,43.945,24.902,2.93,60.547
10.742,22.949,26.855,-1.465,62.5
12.695,-3.906,20.996,-2.93,84.473
14.16,-9.766,23.438,-12.695,44.922
18.066,77.148,33.203,-7.812,77.148
27.344,45.41,28.32,8.301,46.387
18.555,-2.441,18.555,6.836,-12.695
13.672,-1.465,16.602,-0.977,-49.316
18.555,17.09,23.438,0,24.902
16.113,63.477,28.809,2.441,59.57
27.832,46.875,28.809,10.254,40.527
25.879,17.578,30.273,11.23,87.891
13.184,26.855,26.367,0.488,53.711
19.043,16.113,33.203,1.465,83.984
30.762,8.301,29.785,9.277,102.051
27.832,35.156,18.066,4.883,55.664
19.043,-37.109,10.742,-1.953,-22.949
12.207,-30.762,20.508,2.441,-52.246
12.207,69.336,37.598,-2.93,22.949
22.949,77.148,33.691,-2.93,9.277
25.879,88.379,30.273,2.441,41.504
24.414,39.551,21.484,9.277,88.379
14.648,11.719,12.207,12.207,37.109
8.789,20.508,20.02,0,28.32
15.625,30.762,23.926,-0.977,5.371
25.879,58.594,23.438,6.348,-20.508
29.785,33.203,19.043,7.812,53.711
20.508,21.973,23.438,2.441,49.316
15.137,36.133,31.25,-6.348,33.203
21.484,33.691,27.344,-2.441,32.227
21.973,73.242,33.691,2.441,9.766
22.461,12.695,22.461,7.812,16.602
14.648,-13.672,24.414,-0.488,6.348
13.184,37.598,35.156,-9.277,12.695
20.996,38.574,31.738,1.953,41.504
25.391,51.758,27.344,9.277,7.324
26.367,23.438,21.973,0,-47.852
20.996,23.438,33.691,2.93,6.348
16.602,-22.949,22.949,4.883,1.465
17.09,-7.812,18.555,0,52.246
24.902,43.945,32.227,0.977,77.637
25.391,2.93,28.809,-0.977,18.555
20.02,5.371,27.832,0.488,25.879
12.695,15.137,29.297,-7.324,3.418
13.184,-8.301,30.762,-4.883,18.555
16.113,27.344,29.297,4.883,25.879
20.02,-1.465,26.855,11.23,8.301
19.531,-43.945,23.438,10.254,5.859
15.625,7.324,20.508,-0.488,20.508
20.508,-5.371,19.043,-0.488,21.484
30.762,-1.465,26.855,8.789,31.738
41.504,0.977,29.297,17.09,4.883
35.156,-23.438,19.531,3.418,-1.465
31.25,18.066,24.902,0.488,-28.809
29.297,37.598,28.32,0.488,39.551
29.297,32.227,23.926,-1.465,64.941
26.855,19.531,24.902,2.441,-25.391
17.09,10.742,16.113,-1.465,11.23
7.812,13.672,12.695,-11.719,45.41
1.465,-27.344,17.578,-20.508,4.395
4.883,-10.254,10.742,-19.531,-44.434
15.137,40.527,14.16,-6.348,6.836
23.926,-0.488,10.254,1.465,52.734
11.23,-14.16,15.625,-7.324,38.086
2.93,-8.789,24.414,-9.766,48.828
17.578,-2.441,20.02,-1.465,45.898
23.926,54.199,32.227,-1.465,53.711
13.672,29.785,23.438,-0.488,20.508
6.836,14.16,13.184,1.465,2.441
6.348,14.648,18.555,-1.465,82.031
8.301,2.93,21.973,-0.488,95.703
18.066,43.945,22.461,3.418,38.574
22.461,-7.324,30.273,9.766,24.414
16.602,-35.156,26.855,-0.488,5.371
5.859,-9.766,11.23,-8.789,44.922
9.766,-29.785,11.23,-5.371,39.551
18.555,62.988,22.461,-0.977,34.668
15.137,27.344,15.625,-1.953,24.414
1.465,-35.156,7.324,-12.695,-32.227
-2.93,15.137,20.996,-15.625,19.531
6.348,6.836,25.391,-12.207,28.32
14.16,54.688,27.344,-8.301,30.762
17.09,54.688,30.273,-2.93,46.387
8.789,39.062,22.461,-5.371,45.898
-1.465,16.602,16.602,-11.23,22.949
-0.488,-4.883,17.578,-8.301,-6.348
13.184,17.578,20.996,-0.488,6.836
18.555,-3.418,17.09,-3.906,-18.555
13.672,-7.324,22.949,-9.277,56.152
2.93,32.715,33.203,-13.672,73.73
1.953,15.625,30.762,-15.137,-12.207
13.184,43.945,34.18,0,3.418
17.578,59.082,30.762,3.906,75.195
18.555,14.648,22.949,-7.324,60.059
11.719,-9.277,21.484,-14.16,17.578
6.348,-7.812,19.043,-16.602,23.438
23.926,33.203,27.344,-4.395,20.996
34.18,51.27,34.18,8.789,41.016
27.344,-8.789,22.949,9.766,3.906
15.137,-13.672,22.949,-7.324,43.457
6.348,-10.254,23.926,-20.02,43.457
12.695,12.695,27.832,-3.418,24.902
20.02,27.344,17.09,3.906,13.672
15.625,0.977,15.625,-8.789,-8.301
9.766,14.648,20.02,-14.648,36.133
12.695,-12.695,8.789,-11.719,25.879
16.113,-2.441,9.277,-3.418,12.207
18.066,39.062,13.184,3.906,19.043
22.949,-16.602,8.301,-1.953,29.297
21.973,-15.625,8.301,-4.395,-2.93
18.066,-8.789,6.348,-6.836,19.043
17.09,-7.324,5.371,-10.254,55.664
25.391,74.219,17.09,0.977,51.27
28.32,2.93,5.859,2.93,41.016
19.531,-20.996,6.348,-0.488,29.297
16.602,40.039,18.555,3.906,44.434
21.973,23.926,7.812,5.859,43.457
32.227,48.828,14.648,8.301,81.543
31.738,37.109,12.695,6.348,47.363
23.438,22.949,4.883,-0.977,37.598
16.113,6.348,7.324,0.977,50.293
18.555,-12.207,7.324,-0.977,22.949
23.926,9.766,13.184,-5.371,31.25
24.902,-17.578,17.578,8.301,35.156
19.531,-20.02,20.508,4.883,27.832
9.766,37.109,26.855,-4.883,38.574
12.695,10.742,21.973,4.883,12.207
31.25,41.016,15.625,20.508,-6.348
29.297,54.199,26.367,21.973,29.297
1.953,36.621,34.668,4.883,55.176
-9.766,28.809,26.367,-5.859,41.992
-2.93,4.395,13.184,-10.254,57.617
7.812,28.809,19.043,-12.695,26.855
4.395,39.551,23.926,-11.23,54.688
-0.488,-6.348,20.508,-1.465,49.316
-6.836,-16.602,21.973,-9.277,-28.32
-7.812,-3.418,20.02,-15.625,14.648
7.812,3.418,20.02,-5.859,-7.812
15.625,16.602,24.902,9.277,18.066
6.348,-41.992,18.555,5.859,24.414
1.465,-25.879,17.09,1.465,-35.156
1.465,0.977,27.832,9.277,29.785
15.625,-8.789,26.855,17.578,4.395
27.344,11.23,22.949,21.484,-28.32
21.973,22.461,26.367,10.742,56.641
21.484,7.324,19.043,7.812,41.016
17.09,-61.523,15.625,9.766,-20.02
13.184,-31.25,24.414,11.23,-6.836
23.926,32.227,31.25,19.043,-11.23
23.438,-30.273,20.508,13.672,-41.992
17.09,-0.977,21.973,6.836,-29.297
14.648,40.527,32.227,12.695,25.879
17.578,11.719,32.227,10.254,40.039
23.926,72.266,38.086,14.16,56.641
27.832,62.988,38.086,23.926,46.875
19.043,27.832,29.785,17.09,6.836
12.207,14.16,30.273,5.371,26.855
16.602,12.695,29.785,7.324,56.641
25.391,6.836,23.438,13.184,58.594
23.926,0.488,24.902,17.09,31.738
15.137,32.227,28.32,15.137,67.383
12.695,1.465,28.32,9.766,83.008
4.395,-44.434,24.902,7.324,30.273
11.23,8.301,29.785,9.766,28.32
23.438,-44.434,30.273,16.113,4.883
20.508,-83.008,24.902,10.254,42.969
9.766,-61.523,29.297,6.348,39.551
4.883,-90.332,24.414,5.859,-2.93
14.16,-52.734,25.879,8.789,15.625
29.297,-67.871,25.879,17.578,11.23
32.715,-100.586,25.391,16.113,29.297
16.602,-105.469,23.438,7.812,25.391
20.996,-100.098,26.855,9.766,33.203
36.621,-54.688,35.156,18.066,19.043
38.574,-82.52,30.273,27.344,-16.602
38.574,-127.441,28.32,24.414,0.488
20.508,-76.66,34.18,13.672,13.184
14.648,-81.055,29.785,14.16,4.395
25.391,-49.805,36.621,23.438,57.617
26.367,-45.898,41.504,20.996,83.984
19.531,-93.262,35.156,9.766,30.762
13.672,-95.703,33.203,4.883,-31.738
12.695,-118.652,27.832,7.324,-33.203
21.484,-77.148,38.086,9.277,6.836
36.621,0,47.852,16.602,53.223
39.062,-63.965,30.762,18.555,36.621
20.02,-29.785,31.25,7.324,22.461
6.348,10.254,40.527,3.418,54.199
22.461,-4.883,30.762,6.348,37.109
38.574,28.809,25.391,15.137,55.176
33.691,6.348,29.785,19.043,12.695
34.18,6.836,37.598,22.949,0
28.809,-6.836,36.621,23.926,34.18
26.855,-28.32,33.691,17.09,-0.488
39.062,-4.395,36.133,24.414,26.367
36.621,-43.945,28.32,25.879,26.855
28.809,-39.062,30.273,21.484,13.672
24.414,15.137,30.273,16.113,28.809
25.391,10.254,34.18,19.043,39.551
31.25,50.781,42.48,29.785,84.961
31.25,57.129,35.156,27.832,78.613
29.297,37.598,46.387,20.996,37.109
29.297,0.977,49.805,21.973,50.781
25.879,-17.578,29.785,17.09,66.895
26.855,10.254,31.25,12.207,-35.156
31.738,26.855,41.504,22.949,-18.555
27.344,-11.719,35.156,21.484,44.922
18.066,-55.664,35.645,20.508,-36.621
17.09,-27.832,39.551,26.367,-12.207
32.227,18.555,43.945,19.531,-14.16
36.133,-11.23,40.039,18.555,-0.977
25.879,-27.832,35.645,10.254,90.82
16.113,28.809,45.898,3.906,69.336
20.508,45.898,44.922,13.672,57.617
35.645,76.66,39.551,20.996,11.719
36.621,87.402,41.016,17.09,-25.879
32.227,121.582,42.48,20.02,41.992
25.391,138.672,39.551,23.438,41.016
18.555,91.309,26.367,17.09,54.688
20.02,139.648,31.738,7.812,39.551
28.32,183.594,37.109,9.277,26.855
26.855,180.664,31.25,11.23,33.691
19.531,199.219,30.273,1.953,-17.09
19.531,175.293,19.531,2.93,21.973
28.32,180.664,17.09,9.766,58.105
38.574,196.777,29.297,13.672,16.602
29.297,173.34,31.738,17.09,46.875
15.625,195.312,25.879,13.672,8.789
7.324,186.523,33.203,7.324,-19.043
15.625,166.992,27.344,5.859,-8.789
31.738,172.363,18.066,11.719,-9.766
27.344,122.559,22.949,22.949,36.133
19.531,152.832,31.25,23.438,35.645
16.113,186.523,32.715,14.16,50.781
14.648,159.668,29.297,12.695,42.48
30.273,185.547,29.785,20.508,42.969
33.203,179.688,28.32,30.762,36.621
23.926,184.082,32.715,32.227,83.984
20.996,127.93,24.902,25.879,67.871
16.602,100.098,20.02,16.113,13.672
23.438,144.043,26.367,21.973,18.066
25.879,133.301,33.203,32.715,-21.484
19.531,111.328,45.898,26.367,68.359
20.508,57.617,40.527,20.508,82.031
20.996,47.363,28.809,18.066,1.953
19.043,110.352,32.227,20.996,4.883
29.785,53.223,26.855,30.273,-10.254
26.855,21.484,27.832,23.926,31.738
12.695,57.617,26.367,14.16,27.344
10.254,32.227,22.949,12.695,1.953
18.555,66.895,25.391,16.113,26.855
29.785,59.082,20.996,26.367,13.672
30.273,41.992,30.273,29.785,6.836
25.879,9.277,34.18,29.297,49.316
24.902,-47.363,22.461,26.855,67.871
32.715,15.625,31.738,29.297,45.898
38.086,36.133,31.738,33.691,14.16
35.156,-20.508,33.691,26.855,-19.043
25.391,16.602,36.133,25.391,-59.57
20.996,20.508,20.996,30.273,-8.789
33.203,17.578,31.25,37.598,-12.695
45.41,39.062,35.156,38.574,7.812
41.504,43.457,34.18,33.203,5.859
36.133,31.738,33.691,30.273,-29.785
31.738,-12.207,25.391,26.855,-10.742
32.715,-17.578,23.438,24.902,-64.453
44.922,-23.438,29.785,27.344,-49.316
41.992,-65.43,37.109,28.32,-16.113
23.438,-54.199,39.062,26.367,-40.039
16.602,-59.57,34.18,30.273,0
29.785,-76.66,30.273,35.645,-8.301
43.945,-62.5,37.109,39.062,-50.293
37.598,-36.133,44.434,36.621,0.488
27.832,2.93,42.969,30.273,46.875
21.973,-31.25,49.805,23.438,80.078
24.902,15.625,45.898,21.484,51.758
37.598,143.555,41.992,32.715,25.879
33.691,210.449,41.504,37.109,55.664
29.785,237.793,36.133,30.762,17.09
27.344,268.555,40.527,22.461,1.953
28.809,330.566,41.504,24.414,51.27
37.109,399.414,41.992,31.738,41.504
35.645,444.336,37.598,28.32,34.668
25.391,497.559,41.016,21.973,99.121
23.438,501.465,35.156,24.902,77.148
31.738,480.469,29.297,28.809,-19.531
36.621,574.707,41.504,30.762,-4.883
37.109,567.383,27.832,28.32,51.758
30.762,549.805,26.367,26.855,27.832
29.785,595.215,39.062,31.25,-26.367
23.438,517.578,39.062,20.508,48.828
