TP9,AF7,AF8,TP10,Right AUX
53.223,23.926,14.16,0.977,4.883
45.41,20.996,14.16,5.371,35.156
34.18,19.043,5.371,4.395,64.941
28.32,18.066,-7.812,1.953,29.785
35.645,19.531,2.93,1.953,-7.812
48.34,20.02,12.695,9.277,24.902
41.992,18.555,12.207,12.695,70.312
35.156,19.531,16.113,8.789,73.242
34.668,21.973,20.996,6.348,12.207
42.48,21.484,15.137,5.859,14.16
55.176,23.438,17.09,11.719,97.168
53.223,25.879,8.301,16.602,103.027
45.41,25.879,-4.883,10.254,-32.715
33.203,26.367,-3.418,1.465,-32.715
33.691,29.297,3.906,-1.953,53.711
50.293,29.297,20.996,-1.953,60.547
50.781,23.438,30.273,4.395,69.336
40.527,23.926,13.184,6.836,34.18
30.273,24.902,-5.859,-11.719,6.836
28.809,25.879,-2.93,-21.484,4.883
44.434,29.785,15.137,-12.207,-1.465
47.852,27.832,8.789,-6.836,15.625
36.133,25.879,-9.277,-5.371,-62.988
26.855,28.809,7.324,-9.766,-79.59
28.809,31.25,9.277,-13.184,8.301
42.969,32.227,7.324,-7.812,41.992
44.922,30.273,2.93,-0.977,7.812
37.598,32.227,-6.836,4.883,10.742
32.715,31.738,-2.93,7.812,60.059
32.227,26.855,-3.906,3.418,31.738
48.34,24.902,2.93,7.324,43.945
61.035,24.414,6.836,18.555,58.105
47.363,27.832,5.371,17.09,-2.93
39.062,32.227,11.23,12.695,4.395
37.598,31.738,3.906,7.812,42.969
42.48,27.832,0.488,2.441,13.184
52.734,25.879,6.836,12.207,17.578
43.945,25.879,-10.254,14.16,52.734
37.598,23.926,-11.23,8.301,38.574
35.156,25.391,3.906,7.324,13.184
37.109,26.367,7.812,0,29.785
49.316,26.367,8.789,5.371,58.105
46.387,29.297,-2.93,7.812,7.812
35.156,29.785,0,3.906,9.277
28.809,27.344,7.324,2.441,77.148
37.109,25.879,-7.812,-6.348,48.34
59.082,26.367,-6.836,1.465,-50.293
54.199,30.762,0,9.277,-11.23
38.086,31.25,-2.93,4.395,87.891
34.668,29.297,-8.789,0.977,88.379
40.527,30.762,-16.602,0.488,-10.742
54.199,30.762,-7.324,5.859,-12.695
52.734,25.391,-1.953,10.254,13.672
41.016,23.926,-5.859,6.836,41.504
33.203,25.391,-10.742,-1.953,64.453
32.715,27.344,-9.766,-7.324,48.34
42.969,30.273,3.906,-1.953,-8.301
44.434,28.32,3.906,1.953,-20.508
33.203,28.32,8.789,-4.883,-8.301
23.926,28.809,22.461,-14.648,-7.812
19.043,24.414,9.766,-25.391,-11.719
34.668,25.879,20.02,-18.066,-20.508
41.992,31.25,22.461,-7.324,-23.926
26.367,28.809,11.23,-11.719,-35.156
21.973,26.367,19.043,-18.066,41.016
17.09,26.855,8.301,-24.414,71.777
28.809,28.809,10.254,-21.973,12.695
42.969,27.344,23.438,-15.625,10.254
39.062,29.297,14.16,-14.648,-2.441
36.133,33.691,24.902,-21.973,12.207
28.809,32.227,28.32,-26.367,42.48
41.504,30.762,19.043,-18.066,34.18
57.129,32.227,20.996,-2.441,11.719
46.387,32.227,16.602,1.953,80.078
38.574,30.762,3.418,-4.883,71.289
33.203,33.691,-6.348,-11.719,8.301
41.504,36.133,4.395,-11.23,45.898
53.711,33.691,12.207,0,27.344
41.504,33.203,7.812,1.465,35.645
30.273,36.621,10.742,-9.277,16.602
27.832,35.645,13.672,-18.555,19.043
37.598,31.25,3.906,-19.531,17.578
45.41,31.738,10.742,-14.648,3.418
33.691,30.273,12.207,-15.137,38.574
23.438,29.297,4.883,-17.578,32.715
16.602,29.297,1.465,-29.785,20.996
31.25,31.738,-3.906,-28.809,24.902
56.641,32.227,1.953,-3.906,73.73
34.668,23.926,14.648,-13.184,79.102
9.766,20.996,1.953,-33.203,42.969
14.648,21.973,-0.488,-25.879,55.664
23.926,18.066,16.113,-18.066,64.941
32.715,15.625,39.062,-8.301,-2.441
30.273,16.602,42.48,-5.371,20.996
15.625,19.531,37.109,-10.254,41.992
5.371,17.578,27.832,-9.766,-1.465
10.254,14.16,11.719,-9.766,13.184
27.344,17.09,33.691,-0.977,26.855
41.504,18.066,39.062,13.184,5.371
34.18,18.555,28.32,11.719,22.461
19.043,20.02,30.273,4.395,17.09
24.902,22.461,19.531,2.93,-7.324
43.457,27.832,30.762,8.301,-18.066
50.781,30.273,27.832,13.184,-6.348
37.109,30.762,13.184,9.277,23.438
23.926,31.25,19.043,-0.977,55.176
25.879,30.273,9.766,-6.348,58.594
37.598,29.785,15.625,-3.418,19.531
38.574,28.809,22.949,1.465,-39.551
24.414,27.832,15.625,-0.488,-3.906
13.672,28.809,17.578,-10.254,-9.766
12.695,28.809,24.414,-13.184,-42.48
24.414,25.879,28.32,-12.695,-14.16
34.18,24.902,34.668,0.977,22.949
32.227,24.902,34.668,6.836,40.039
29.785,26.855,34.18,-2.441,-28.32
29.785,28.32,35.156,-3.906,-25.879
42.969,29.297,38.086,1.465,-3.418
60.059,34.668,39.062,16.602,47.363
59.082,35.645,31.25,25.879,62.5
50.293,35.156,27.344,22.461,8.301
43.457,37.598,22.461,13.184,60.547
45.898,31.738,16.113,9.766,48.34
50.293,27.832,23.926,15.625,-9.766
39.062,24.902,36.133,23.438,49.316
28.32,20.508,21.484,16.602,-16.113
18.066,22.949,16.113,1.465,-8.301
26.855,23.926,31.738,-2.441,101.562
46.387,25.879,44.922,1.465,53.223
43.457,26.367,29.297,4.395,-13.672
32.715,24.414,20.02,1.465,-15.625
24.414,26.855,23.926,-8.789,22.461
32.227,29.785,13.672,-13.184,36.621
49.316,30.762,29.297,-4.883,58.594
43.945,28.32,35.645,-0.977,67.383
29.785,25.391,29.297,-4.883,46.875
20.996,24.414,25.391,-9.277,45.898
22.461,20.508,18.066,-16.602,17.09
38.574,19.531,28.809,-13.184,3.906
42.48,24.902,35.645,-1.465,7.812
36.133,30.273,30.273,-0.488,-23.926
28.32,31.25,20.508,-8.301,11.23
28.32,29.785,7.812,-15.137,52.734
42.48,31.25,11.719,-8.789,41.992
43.945,27.832,7.324,-1.953,14.16
29.785,26.367,4.883,-7.324,-38.574
24.414,29.297,11.719,-14.648,4.883
24.902,27.344,7.812,-14.16,6.836
43.457,26.367,12.207,1.465,-42.969
55.664,35.645,8.789,10.254,-8.301
38.574,42.48,7.812,-6.348,-24.414
27.832,40.527,15.625,-16.602,-49.316
32.227,37.598,9.277,-20.996,-41.504
53.223,36.133,12.695,-17.09,-17.578
58.594,34.18,12.207,-9.766,-40.527
51.27,33.691,-10.254,-10.254,-13.672
42.969,34.18,-5.371,-12.207,-10.254
36.621,29.785,6.348,-12.207,-38.574
54.688,27.832,14.16,-12.207,-0.977
68.359,31.25,29.785,-5.859,8.301
59.57,31.738,26.855,3.418,2.441
44.922,32.715,20.02,1.953,-36.133
40.039,36.621,10.742,-6.348,-10.742
50.293,37.598,14.648,-4.883,46.387
61.035,34.18,33.691,7.324,25.391
60.547,30.273,20.02,15.137,47.852
52.246,27.832,7.324,3.906,35.156
38.574,29.785,15.625,-7.324,28.32
41.992,32.227,2.441,-12.695,14.16
57.617,34.18,-2.93,-11.23,31.738
54.688,35.156,-1.465,-4.395,94.238
42.969,31.25,-12.695,-7.324,17.09
38.086,31.738,-23.438,-13.184,-10.254
41.504,32.715,-25.391,-14.648,41.992
55.664,31.738,0.488,-8.789,36.621
54.199,30.762,4.883,-1.465,1.953
42.48,32.227,-5.371,-6.836,1.953
37.109,32.715,4.883,-18.555,60.547
39.551,28.32,0.977,-19.531,83.496
54.688,30.762,-2.441,-9.766,46.875
58.594,32.715,1.465,-5.371,37.598
47.363,33.691,6.836,-6.836,62.012
37.109,30.273,0,-13.672,35.645
35.645,27.344,-7.324,-20.02,-12.207
52.734,30.273,1.953,-10.254,-17.578
54.199,26.855,-2.441,-4.395,-3.418
35.645,24.902,0,-7.812,13.672
29.297,27.832,13.672,-11.23,15.137
30.762,28.32,4.395,-13.672,3.418
45.41,26.367,11.23,-13.672,13.184
52.246,20.996,19.531,-6.348,55.664
39.062,19.531,8.301,0,62.988
24.414,22.461,1.465,-6.348,34.18
22.461,22.949,2.93,-15.137,6.836
38.574,19.531,9.277,-11.719,34.18
44.434,11.23,4.395,2.441,13.184
32.227,8.301,-2.93,5.371,-32.715
25.879,11.23,-5.371,2.93,4.395
17.09,10.742,-6.348,-4.395,68.359
24.902,6.836,4.883,-12.695,76.172
39.551,6.348,9.766,-2.93,45.41
28.32,9.277,-5.371,-1.465,23.926
16.113,14.16,2.93,-9.766,-32.227
15.625,15.137,10.254,-11.23,-90.82
28.809,8.301,14.16,-10.742,-67.871
42.969,6.348,21.484,-0.977,38.086
33.691,10.254,12.695,5.371,26.855
25.879,9.766,12.207,1.953,-17.09
25.879,5.859,5.859,-5.859,0.488
30.762,7.812,4.395,-11.23,4.883
43.945,11.719,22.949,-0.488,33.203
40.527,12.695,22.461,8.789,29.785
23.438,13.184,12.207,2.93,-5.859
18.555,11.23,6.836,-3.906,-4.883
26.367,6.836,10.742,-6.348,-13.184
41.016,7.324,23.438,2.93,17.09
42.48,7.324,6.348,14.648,-8.301
33.691,8.301,2.441,7.324,-42.48
25.879,10.254,15.625,-4.395,24.414
34.668,14.16,4.395,-6.836,-40.527
51.27,16.602,16.602,-0.488,-95.215
49.805,15.137,12.695,7.812,-6.348
39.551,17.578,-1.953,4.395,6.836
37.598,20.508,5.371,0.488,17.09
37.598,20.508,-0.977,-2.93,8.789
48.828,20.02,0.977,0.488,-51.758
55.176,21.484,4.395,10.254,-13.672
40.527,20.996,-4.395,12.207,-14.16
29.785,18.066,-7.324,5.371,16.113
29.785,16.113,-5.859,-2.93,25.391
41.016,15.625,3.418,1.953,13.184
50.293,14.16,14.648,17.09,49.316
38.574,10.254,11.23,19.043,33.691
25.879,7.812,0,7.812,1.953
26.855,6.836,8.789,-0.977,14.16
41.992,10.254,35.645,3.418,65.43
51.27,11.719,26.855,17.578,40.527
42.48,7.324,4.395,20.508,46.875
36.621,11.719,10.254,13.184,84.961
36.621,18.066,15.625,10.254,34.18
51.27,19.043,20.02,11.719,-16.602
65.918,18.555,23.926,19.043,-19.043
57.617,17.09,25.391,23.926,25.879
48.34,14.16,23.926,22.949,40.527
47.852,13.672,8.301,16.113,12.207
56.152,14.648,4.395,11.23,29.297
64.941,12.695,16.113,15.625,28.32
55.664,11.719,15.137,13.184,33.203
49.805,14.648,21.973,10.742,37.598
44.434,17.578,25.879,5.859,32.715
45.41,14.648,18.066,3.906,1.465
60.547,11.719,21.484,13.184,-5.859
58.594,15.137,20.508,18.555,57.617
45.41,16.602,10.254,12.207,35.645
32.227,14.16,6.348,-1.953,36.621
34.18,17.09,17.09,2.441,28.809
48.828,19.043,30.762,15.137,-62.988
40.039,15.625,23.926,9.277,-47.852
26.367,14.16,29.297,0.488,20.02
21.973,13.672,39.551,-2.441,0.488
28.32,10.254,39.551,1.953,-23.926
49.805,12.207,55.664,24.902,20.02
54.199,17.09,45.898,25.879,73.73
33.203,19.531,28.809,2.441,72.754
16.113,17.09,25.391,-16.113,30.762
27.832,15.137,22.461,-16.113,37.109
43.457,20.508,25.391,-10.254,67.383
40.527,20.508,17.09,-13.184,23.926
36.621,20.996,15.625,-9.277,16.113
31.25,24.414,12.695,-10.742,-8.789
32.715,26.367,7.812,-18.066,-16.602
48.828,29.297,19.043,-20.508,23.438
58.594,32.715,9.766,-11.719,8.301
53.711,33.203,-0.488,-8.301,13.184
42.48,35.156,9.277,-15.625,33.203
37.109,35.156,7.324,-21.973,45.898
50.293,32.715,11.23,-21.973,44.922
58.594,31.25,12.695,-10.254,-18.066
45.898,30.273,5.371,-9.277,-52.734
30.762,29.297,11.719,-15.625,-46.875
26.855,26.367,8.789,-16.602,-3.906
37.598,22.461,12.207,-15.625,58.105
50.293,22.949,25.391,-3.418,44.434
42.969,20.996,16.602,1.465,38.086
31.738,19.043,11.719,-4.395,40.039
21.973,20.996,4.883,-12.207,30.762
30.762,18.555,4.883,-11.719,49.316
47.852,19.531,12.207,-1.465,-11.719
40.039,20.996,12.207,-0.977,2.441
31.738,20.02,9.766,-0.977,44.922
27.832,19.043,0.977,-5.859,38.086
37.598,18.555,2.441,-14.16,30.762
56.152,23.438,13.184,-3.906,6.348
55.176,22.949,19.531,4.883,19.531
48.828,20.996,26.367,-0.977,52.734
41.992,25.391,26.367,-7.324,26.855
46.875,30.762,25.391,-10.742,47.363
59.082,34.668,35.156,-4.395,116.699
57.617,37.598,30.273,-0.977,99.609
43.457,37.598,27.344,-8.301,47.363
35.645,37.109,24.414,-15.137,13.672
38.574,36.621,22.461,-23.926,13.672
54.199,37.598,27.832,-16.602,-2.441
55.664,36.621,29.297,-8.301,-3.906
39.551,29.785,28.809,-13.672,19.043
31.25,25.879,24.414,-22.461,23.438
33.691,22.949,28.809,-27.832,20.02
48.34,19.531,43.457,-23.438,55.664
53.223,16.113,39.062,-11.719,100.586
45.41,17.578,25.391,-13.184,35.156
40.039,18.066,21.973,-18.555,5.859
38.574,15.625,15.137,-21.973,40.527
49.316,17.578,23.926,-16.113,7.812
51.758,16.602,21.973,-5.859,23.438
35.645,13.672,10.254,-7.812,30.273
22.949,14.648,14.16,-15.137,17.09
26.855,17.578,0.488,-17.09,1.465
47.852,20.996,-0.977,-8.789,-39.551
52.734,20.508,3.418,0,19.531
45.41,17.578,6.348,0,27.832
43.945,23.438,19.531,-2.441,11.719
41.016,27.832,7.324,-1.465,17.09
57.129,31.738,10.254,-0.488,5.371
74.707,37.109,10.254,6.348,-4.883
64.453,32.227,3.906,12.207,15.625
50.781,22.949,11.23,-2.441,37.109
37.598,18.555,4.395,-12.207,-5.859
37.598,19.531,-4.883,-11.23,11.23
51.758,25.391,-9.766,-9.766,27.832
44.922,24.902,-18.555,-9.277,-52.246
31.25,22.949,-16.602,-10.742,-25.391
24.414,20.02,-13.672,-20.02,37.109
26.855,19.043,-8.789,-23.438,42.969
37.598,18.555,15.137,-10.254,25.879
36.133,17.578,20.996,-5.859,1.953
24.414,16.602,14.648,-11.23,20.996
14.16,13.184,16.113,-16.113,39.062
19.043,13.184,18.066,-16.113,46.387
35.156,16.113,20.508,-11.719,62.5
35.156,16.113,8.789,-12.207,93.75
21.973,18.555,10.254,-13.672,68.359
12.207,19.043,12.207,-19.043,-20.508
18.066,13.184,15.137,-24.902,-4.883
30.762,10.742,27.344,-21.973,48.34
27.832,10.742,8.789,-15.137,70.312
21.973,11.719,0,-15.137,27.344
20.02,10.742,10.254,-20.508,26.367
22.949,10.742,5.859,-19.531,54.199
40.527,12.207,13.672,-7.324,1.465
49.316,16.602,8.301,0,-32.227
40.039,17.578,9.277,-3.418,4.395
28.809,15.625,15.625,-8.301,46.387
34.18,16.113,3.906,-14.648,-12.207
56.152,17.09,12.207,-4.883,-41.504
63.477,18.555,20.02,7.324,-43.457
53.711,20.02,12.207,0.488,-31.738
39.062,18.066,12.695,-3.906,-27.832
32.715,18.555,5.371,-8.301,7.324
43.945,18.555,12.695,-9.766,36.133
50.293,19.531,16.602,-2.441,-46.875
44.434,23.438,5.859,-0.488,-3.418
39.062,19.531,-3.906,-12.207,58.594
32.227,18.555,-9.766,-18.555,38.086
38.086,19.043,-9.766,-19.531,39.062
46.387,17.578,-13.184,-16.602,48.828
33.203,16.113,-17.578,-13.672,0.488
24.414,17.09,-18.066,-17.09,14.16
20.996,20.996,-21.973,-23.926,45.41
23.438,21.484,-20.508,-33.691,19.531
38.086,21.484,-15.625,-23.926,25.391
31.25,19.531,-27.344,-18.555,45.41
19.531,17.578,-19.531,-22.949,37.109
19.531,21.484,-13.184,-27.832,43.945
30.762,27.344,-26.367,-28.809,7.324
48.828,29.785,-21.973,-15.625,-32.227
44.922,26.855,-17.578,-11.719,-7.812
28.32,26.367,-19.043,-14.16,60.059
23.438,25.879,-28.32,-18.066,34.18
31.25,22.461,-19.043,-22.461,-27.344
41.992,23.438,6.836,-13.184,25.391
35.645,21.973,-4.395,-6.836,-23.926
28.809,22.461,-7.324,-11.719,-87.891
26.855,23.926,3.418,-12.207,-62.988
28.32,21.484,1.953,-12.695,-56.641
43.457,23.926,20.02,-9.277,-29.297
43.457,25.879,24.414,-1.953,35.156
30.762,22.949,15.137,-3.906,69.824
27.344,26.367,5.859,-16.113,24.902
29.785,28.32,10.742,-21.484,43.945
42.969,26.855,20.02,-15.137,62.5
45.898,27.832,18.066,-8.789,74.707
37.109,26.855,13.672,-11.719,79.59
30.762,26.367,2.441,-16.113,76.172
29.785,27.832,-1.953,-20.508,86.426
42.969,30.273,12.695,-15.137,38.086
48.34,33.691,6.836,-0.488,17.578
36.621,34.18,-0.488,-0.977,22.461
29.785,34.18,0.488,-7.812,75.195
34.18,34.18,-7.324,-12.695,63.477
45.41,33.203,4.395,-10.742,2.441
47.852,30.273,12.207,-1.465,55.664
36.621,29.785,-4.395,-3.906,73.242
30.273,31.738,-6.348,-14.648,12.207
23.438,30.273,-1.465,-24.414,-6.836
30.273,28.809,6.348,-21.484,-2.93
44.434,28.809,11.719,-6.836,16.113
38.086,30.762,14.648,-3.906,89.844
30.273,31.25,10.742,-4.883,65.43
28.809,26.367,3.906,-6.836,2.93
40.527,24.902,18.066,-8.789,16.602
51.758,29.785,22.461,-1.465,18.066
46.387,34.18,18.555,0.488,36.133
38.574,38.574,17.578,-3.906,8.301
32.715,40.527,8.789,-8.789,1.465
41.992,39.062,16.113,-11.719,59.082
58.105,38.574,24.414,-3.906,69.824
49.316,36.621,8.301,-3.906,39.551
36.621,36.621,13.672,-10.742,63.477
30.762,37.109,24.902,-13.672,59.57
36.133,36.621,26.855,-13.184,57.617
52.734,36.621,35.645,-0.488,-16.113
44.434,35.645,37.598,5.859,13.672
26.855,35.645,27.832,0.977,64.453
23.926,39.062,23.926,-7.324,-6.348
34.18,41.016,16.602,-9.766,35.645
45.41,38.574,13.184,-0.977,87.891
40.527,38.574,9.277,3.906,57.617
31.738,39.551,8.789,0.977,-0.488
27.344,37.598,15.137,-4.883,-37.598
35.156,36.133,15.137,-5.371,-23.926
48.828,33.691,23.926,2.441,7.324
48.34,34.18,26.855,10.254,29.297
34.668,35.156,28.809,11.23,31.25
25.391,31.738,21.973,5.859,3.906
31.738,27.832,14.648,-6.348,-43.457
47.363,29.785,26.367,-3.906,12.695
47.363,28.32,25.879,5.859,4.883
39.551,24.414,20.02,6.836,-22.461
32.227,23.926,20.508,3.906,-33.691
27.832,21.484,18.066,-2.93,-19.531
41.016,20.02,19.043,-1.465,55.664
51.758,22.461,13.672,8.301,40.527
44.922,19.531,10.742,8.301,48.828
36.133,15.137,19.531,-4.395,71.289
31.25,15.625,14.16,-9.277,4.883
43.457,19.043,20.996,1.953,-2.93
56.641,20.996,32.715,7.812,62.988
45.41,20.508,24.902,5.371,45.41
35.645,18.555,16.113,-1.465,-4.395
35.645,16.602,9.766,-7.812,23.438
48.828,20.508,17.578,-0.977,68.848
58.105,20.02,17.578,3.418,21.484
50.293,17.578,12.695,1.953,8.789
41.504,17.578,8.301,3.906,18.066
33.203,16.602,2.441,-8.301,-46.387
38.086,15.137,11.23,-16.602,-14.648
48.828,12.695,11.719,-5.371,-20.02
44.922,12.695,-0.977,0,-27.344
37.598,15.625,9.766,-7.812,14.16
32.715,14.16,18.555,-10.742,56.152
39.551,14.16,16.113,-8.301,110.352
55.176,15.625,22.949,3.418,91.797
52.734,13.184,13.672,9.766,-18.066
45.41,18.066,19.531,10.742,-40.039
35.156,18.066,22.461,3.906,-22.949
39.062,12.695,7.324,-0.977,-21.484
61.035,17.09,16.113,8.789,10.254
60.547,20.02,26.855,17.578,62.012
49.805,18.555,18.066,18.555,7.812
41.016,18.555,3.418,8.301,-49.316
43.457,18.555,7.812,-1.953,-20.996
60.059,20.02,25.391,5.371,41.504
62.5,19.531,20.508,15.625,41.504
46.875,17.578,13.672,9.766,0
36.621,19.043,12.207,-0.488,22.461
38.086,18.066,12.695,-7.324,-15.625
49.316,17.578,37.109,0,-0.488
53.223,13.672,33.203,12.207,60.059
41.992,12.695,23.438,9.277,56.152
33.203,18.066,31.25,-0.488,24.902
29.297,20.508,29.297,-3.418,41.504
39.551,20.02,34.18,0.488,11.23
48.828,17.578,27.832,6.836,10.742
39.062,19.531,24.414,7.812,83.008
27.344,17.09,24.902,0.977,71.289
28.809,14.648,14.16,-5.371,1.953
44.434,19.043,19.043,-3.418,-20.02
50.781,19.043,15.625,5.371,19.043
44.434,16.113,1.953,6.836,78.613
38.574,18.555,12.207,5.371,82.031
36.621,18.555,9.277,0.977,26.855
48.828,20.996,15.137,0.977,-1.465
60.059,24.902,23.438,7.812,48.828
50.781,23.926,20.02,12.207,73.73
39.551,25.879,17.578,2.93,43.945
32.227,24.902,17.578,-10.254,37.598
40.039,22.949,24.414,-0.977,38.086
51.758,22.949,16.113,8.789,-7.812
42.969,20.02,22.461,3.418,5.371
33.691,20.02,28.32,2.441,1.953
27.344,19.531,11.719,-2.93,-43.945
40.039,21.973,9.766,-2.441,-1.465
56.152,21.484,22.949,6.836,33.203
50.781,17.578,18.555,11.719,35.156
42.48,17.578,18.555,8.789,-9.766
39.551,18.066,21.973,0.977,8.789
45.41,19.043,13.672,-4.883,62.988
61.523,19.043,18.066,5.859,11.23
61.523,19.043,24.902,11.719,2.93
51.27,21.484,21.973,4.883,29.785
45.898,20.996,14.648,-0.977,46.875
46.875,19.043,19.043,-7.324,43.457
62.012,17.578,27.832,-1.465,22.461
62.012,11.719,21.484,8.301,23.438
45.898,11.719,15.625,10.742,9.277
33.691,13.184,10.254,1.465,-8.789
37.109,11.719,3.418,-7.812,23.438
50.293,16.602,13.672,-2.93,38.574
51.27,16.602,7.324,1.465,-39.062
43.945,14.16,6.348,-0.977,-16.113
36.133,15.137,21.973,-4.883,17.09
32.715,16.602,6.348,-7.324,7.812
47.363,17.09,10.254,-1.465,6.348
54.688,15.625,9.766,5.859,8.789
41.992,15.625,-1.953,4.395,18.066
31.25,17.09,11.719,-1.465,19.531
23.926,19.043,9.277,-10.742,18.066
33.203,19.531,16.602,-12.207,37.109
48.34,19.043,17.578,0.977,-3.418
43.457,20.02,12.695,6.836,-51.27
36.133,21.973,11.23,-0.977,-10.254
36.133,23.438,1.465,-8.301,25.391
48.34,30.762,7.324,-8.301,-13.184
59.082,32.227,10.742,0,-0.977
48.34,30.762,4.883,1.953,-2.441
36.133,36.133,17.09,-8.301,-13.184
31.738,35.156,21.973,-11.719,37.598
41.992,31.25,17.578,-9.277,50.781
56.641,27.832,28.32,2.441,40.039
47.363,26.367,29.785,9.277,30.273
37.598,26.367,12.695,5.371,-16.602
38.574,27.344,4.395,1.953,-40.527
48.828,31.738,14.16,1.953,31.25
64.941,33.691,21.484,6.348,62.988
60.059,35.156,12.207,7.812,20.508
47.363,35.156,1.953,6.348,26.367
39.062,33.203,-2.93,-2.93,32.227
37.109,31.738,1.465,-15.137,14.16
41.504,32.227,11.719,-5.371,59.082
35.645,33.203,-7.324,1.465,-11.23
24.414,30.273,-3.418,-4.395,-68.359
15.625,26.367,13.184,-13.184,-11.23
19.531,24.902,8.789,-19.531,42.969
36.133,24.902,16.602,-10.742,24.902
37.598,19.531,24.902,-2.93,15.625
28.809,18.555,20.508,-6.348,33.691
23.438,22.949,14.648,-17.09,83.984
22.461,20.508,8.301,-25.391,71.777
34.18,20.02,17.09,-18.066,47.852
37.109,20.02,10.254,-8.301,67.383
25.391,19.531,1.465,-9.766,14.16
15.137,20.508,16.113,-12.207,20.508
16.113,20.02,13.672,-21.484,40.039
29.297,19.531,24.902,-20.508,25.879
31.738,18.066,30.762,-8.789,81.543
20.996,20.02,13.672,-8.789,112.793
12.695,20.996,-7.324,-11.23,12.207
13.672,21.484,-10.254,-16.602,-28.32
26.855,23.438,6.836,-19.531,33.691
31.738,22.461,-2.441,-16.113,30.273
23.438,18.066,-9.277,-14.648,-18.555
16.602,19.531,3.906,-18.066,-21.484
18.066,24.414,0,-20.02,-30.273
35.645,27.344,2.93,-16.602,-36.133
44.434,27.344,10.742,-8.301,-6.836
36.133,26.855,10.254,-2.93,88.867
32.715,25.879,-3.418,-6.836,43.457
29.785,21.484,-11.719,-12.207,-14.16
41.992,18.555,3.418,-3.906,6.348
57.617,23.438,8.301,6.348,22.949
48.828,29.297,3.906,-1.465,23.926
41.992,35.645,2.441,-2.93,20.02
32.715,37.109,-1.465,-6.348,22.461
35.156,34.668,10.742,-15.625,26.367
49.316,39.551,23.438,-7.812,32.715
39.551,42.969,5.371,-5.371,-22.461
26.367,44.922,11.719,-15.625,-38.574
26.367,44.434,20.508,-20.02,-35.156
30.762,38.086,16.602,-19.531,-3.906
42.48,35.645,23.438,-12.207,46.387
43.945,31.25,10.254,-5.859,28.32
30.762,28.809,6.348,-7.812,-26.367
15.625,29.297,4.395,-13.672,8.789
15.137,24.902,2.93,-17.09,8.301
35.645,24.902,26.367,-10.742,-11.23
44.922,25.879,23.926,-1.465,-20.996
32.715,24.902,11.719,0.488,-17.09
28.32,26.855,16.602,-3.418,36.133
35.645,25.879,7.812,-6.348,32.715
47.363,26.367,10.254,-1.465,23.438
51.758,31.738,12.207,6.348,69.336
42.48,29.785,2.93,5.859,-17.578
35.156,25.391,-11.23,-2.93,-36.133
32.715,25.879,-14.648,-9.277,1.953
50.293,27.344,6.836,-2.93,-40.039
58.594,26.855,14.648,7.812,-2.93
42.969,24.902,11.23,10.254,62.5
39.551,22.461,5.859,5.859,53.223
37.598,20.02,-3.418,-2.93,5.371
40.039,22.949,5.371,-1.953,-22.461
46.387,22.461,3.906,5.859,17.09
31.738,23.438,5.859,3.418,43.945
17.578,26.855,16.602,-1.953,7.324
20.02,24.902,4.883,-7.812,9.277
37.109,24.902,7.324,-7.324,57.129
52.734,23.438,12.695,1.465,29.297
40.527,22.461,5.859,4.883,-11.23
28.809,24.414,-0.977,-1.953,-36.133
23.438,23.926,-6.836,-13.672,6.348
30.762,26.855,4.395,-15.625,50.293
45.898,27.344,8.789,-5.371,14.16
38.086,19.043,-3.906,-3.906,42.48
27.832,19.043,3.906,-9.277,77.637
22.461,20.02,7.324,-13.672,48.34
22.949,20.508,8.301,-13.184,47.852
30.762,25.391,15.625,-4.395,102.051
28.809,24.902,13.184,-3.906,105.469
15.137,19.531,6.348,-8.301,42.969
6.836,15.625,-0.488,-14.16,-15.625
20.996,15.625,6.348,-13.184,10.742
40.039,19.043,26.367,2.93,121.094
36.133,18.555,36.133,10.254,136.23
22.949,18.555,23.438,1.953,0.488
15.137,18.555,13.184,-11.23,-33.691
21.973,18.555,20.508,-16.113,83.008
37.109,21.973,28.32,-5.859,77.148
36.133,21.484,30.762,1.465,26.855
33.203,20.996,35.645,0.488,30.273
28.809,20.02,35.645,-6.836,30.762
35.645,23.926,38.574,-11.23,31.738
53.711,28.32,45.898,-6.836,3.906
53.223,27.344,40.527,4.883,-61.523
40.039,26.855,47.852,4.395,-48.34
30.273,22.461,46.387,-7.324,-0.977
29.785,21.484,27.344,-13.672,2.93
43.945,23.926,31.738,-3.906,20.996
50.781,20.508,35.645,3.906,25.391
40.527,19.043,27.344,-3.418,7.812
30.273,24.414,33.203,-11.719,27.832
28.809,27.832,29.297,-18.066,38.086
44.434,30.762,31.25,-11.23,23.926
54.199,30.762,27.832,-1.465,24.902
45.898,30.762,19.043,-1.953,4.883
39.062,30.273,20.02,-2.93,9.277
32.715,26.855,12.695,-11.719,26.855
45.898,29.785,17.578,-13.672,41.016
54.688,27.344,20.02,-2.93,15.137
35.645,23.926,11.23,-8.789,6.836
24.902,25.879,15.625,-16.113,45.898
20.02,23.438,6.836,-19.043,21.973
28.32,26.367,10.742,-18.555,1.953
44.434,29.785,15.625,-5.859,17.09
40.039,27.344,14.648,-2.93,-14.16
35.645,27.344,20.02,-9.766,-14.648
32.227,26.367,13.672,-13.672,34.18
38.086,23.438,14.648,-15.137,53.711
51.758,28.809,29.785,-9.766,14.16
41.504,33.691,41.504,-6.348,45.41
30.762,31.25,40.527,-12.695,62.5
27.832,31.25,39.551,-21.973,32.715
32.715,35.156,42.969,-20.996,38.086
46.875,41.016,43.457,-6.836,-17.09
39.551,42.48,31.738,-1.953,-30.762
26.855,43.457,39.062,-6.348,-0.977
20.508,43.945,44.922,-13.184,2.93
25.391,42.969,34.668,-17.09,11.23
39.551,40.039,38.574,-6.836,17.578
38.574,37.109,35.156,-0.977,56.152
31.25,38.574,30.273,-4.883,49.316
22.949,41.504,25.391,-7.324,-13.184
27.832,43.457,20.02,-10.254,-76.172
50.781,44.434,27.344,-6.836,-12.207
56.152,44.434,19.531,-2.441,52.734
46.875,44.434,16.113,-7.324,20.996
32.715,44.434,14.648,-15.137,50.781
29.785,43.945,3.418,-20.996,10.742
44.434,42.969,13.184,-20.996,-20.508
44.922,41.016,18.555,-11.719,8.789
27.832,40.039,19.043,-8.301,-0.977
19.531,40.039,12.207,-14.16,33.691
23.438,39.062,7.812,-20.996,85.938
34.18,37.109,20.02,-17.09,112.305
37.109,37.598,18.555,-10.254,72.266
27.832,38.574,20.02,-13.184,50.781
18.555,38.574,20.996,-19.043,47.852
16.602,39.062,17.578,-24.414,-33.691
32.715,41.016,29.785,-20.02,-42.48
40.039,44.434,27.344,-11.719,23.438
29.785,44.922,27.344,-12.695,-2.93
21.484,43.457,35.156,-13.672,31.25
23.438,43.945,22.461,-15.625,73.73
40.527,41.992,10.742,-15.625,12.695
51.758,40.039,19.043,-3.418,8.789
44.922,41.504,10.254,2.441,32.227
34.18,45.898,8.789,-3.418,-4.395
24.902,46.875,24.414,-12.695,50.781
36.621,42.969,28.809,-11.719,106.445
57.129,41.504,30.273,1.465,22.949
47.363,41.016,29.297,7.812,4.395
35.156,40.039,26.855,7.324,21.973
32.715,38.086,23.438,-0.488,22.949
38.086,37.598,15.625,-10.742,62.012
47.852,40.527,14.648,-5.859,77.148
42.969,41.016,20.02,1.953,74.707
31.738,37.109,19.531,0,25.879
26.367,39.551,16.602,-11.719,-1.465
28.32,43.945,18.555,-13.184,23.926
46.387,40.527,34.668,-1.953,13.184
50.293,34.18,25.879,-2.441,4.395
42.48,36.621,13.672,2.93,-2.93
45.41,37.598,17.578,9.766,49.805
38.086,29.785,14.16,-4.395,33.203
39.551,24.902,22.461,-5.371,4.883
38.574,24.902,32.227,3.906,80.566
30.762,24.902,31.25,5.371,76.66
28.809,21.973,18.066,0.977,-5.371
29.785,20.996,11.719,-4.883,-11.719
48.828,23.926,23.438,2.93,2.93
54.199,24.902,18.555,11.719,4.883
40.527,22.461,15.625,8.789,15.625
34.18,25.391,27.832,7.324,2.441
38.086,27.832,25.391,6.348,54.688
51.27,26.855,36.133,10.254,28.809
59.082,26.367,44.922,22.949,3.906
52.246,24.902,38.086,24.902,-17.09
42.969,22.461,26.367,15.625,-51.758
41.504,22.949,14.16,7.812,-26.367
54.199,25.391,19.043,7.324,-8.789
55.176,21.973,25.391,11.23,12.207
42.48,21.484,27.832,7.324,52.246
33.691,21.484,25.391,-0.977,47.852
29.297,18.066,13.672,-7.324,43.945
45.898,20.508,21.973,-0.977,36.133
59.082,24.414,23.438,10.742,18.555
52.246,26.367,20.02,8.789,55.176
43.945,26.367,22.949,7.812,76.66
34.18,25.879,15.137,4.883,-24.902
41.992,24.902,25.879,2.441,-59.082
53.223,24.414,37.109,9.277,25.391
45.41,26.367,27.832,11.23,72.754
41.016,26.367,23.926,12.695,-4.395
40.039,30.762,23.438,9.277,-31.738
47.852,33.691,23.926,2.93,45.41
66.406,30.273,26.367,8.789,39.062
57.129,30.273,19.043,8.301,38.574
40.527,28.32,14.16,-2.441,-18.555
36.621,25.391,15.625,-13.672,16.113
37.598,21.973,16.602,-17.578,71.777
52.246,23.438,24.414,-7.812,66.406
59.082,29.785,16.113,0.488,75.684
48.828,30.273,15.625,-2.93,55.176
41.992,28.32,9.766,-8.301,-5.859
44.922,27.344,9.766,-10.254,1.953
55.664,26.855,25.391,-2.93,27.344
58.105,27.832,4.883,7.812,-49.316
41.992,25.879,-2.93,6.836,-56.641
27.832,23.926,4.395,0,-30.762
31.738,26.855,0,-6.348,-38.086
41.992,27.832,17.578,-6.348,21.973
41.504,26.855,24.902,6.348,27.832
27.344,27.344,19.043,8.301,14.648
16.113,22.461,12.695,1.953,34.18
19.043,22.461,-0.488,-1.465,46.387
33.691,27.344,0.977,-0.488,1.953
42.48,27.344,7.324,4.883,-31.738
32.715,29.785,10.742,2.441,32.227
19.043,29.785,16.113,-6.348,43.457
19.531,28.32,10.254,-12.207,-4.395
37.598,28.809,25.391,-6.348,8.301
48.34,24.902,38.086,3.906,44.922
35.156,23.438,27.832,2.93,41.016
27.344,25.879,22.461,2.441,25.879
25.879,27.832,9.277,1.465,3.418
37.598,26.855,6.836,0.977,20.02
52.246,28.809,14.648,7.324,61.523
41.992,32.715,11.23,11.23,21.484
29.785,34.668,10.742,7.812,2.441
19.043,37.109,5.859,-1.953,-8.301
26.367,33.691,18.066,-1.953,52.734
43.945,27.344,26.855,6.836,51.27
35.645,28.809,22.461,10.742,-18.066
22.949,28.809,27.344,2.441,2.93
14.648,26.367,18.555,-12.207,45.41
22.949,26.367,17.09,-13.672,27.344
38.086,23.926,22.461,-4.395,-1.465
36.133,23.926,20.996,-0.977,15.625
31.738,24.902,23.438,-2.441,8.789
27.832,23.926,19.043,-6.836,0.488
32.715,22.949,12.207,-9.277,51.758
43.457,23.438,17.578,0.977,60.547
45.898,22.461,20.996,8.789,18.066
40.039,25.391,32.715,2.441,24.902
35.156,28.32,46.387,-4.395,27.832
40.527,28.32,42.48,-5.371,47.363
54.688,30.762,51.27,-3.906,51.27
56.152,32.227,52.734,-0.488,4.395
42.48,35.156,33.203,0.488,28.809
28.809,34.18,13.184,-4.395,56.641
29.785,33.203,1.465,-7.812,20.996
42.48,33.203,6.348,-1.465,25.879
45.898,34.18,18.066,3.418,23.926
33.691,35.156,31.738,1.465,13.184
26.855,37.598,27.344,0,23.926
28.32,38.574,17.09,-3.418,33.203
35.156,31.738,32.227,-0.977,74.219
38.574,28.809,35.645,6.348,60.059
35.156,31.25,37.598,10.742,25.879
33.691,26.855,35.156,3.418,66.895
27.344,23.438,18.555,-6.836,53.711
43.945,23.926,13.672,0,-0.488
56.152,20.996,26.367,10.254,23.438
38.574,21.484,36.133,8.789,51.758
30.762,23.438,34.668,3.906,17.09
27.344,24.414,34.18,-0.977,45.41
33.691,23.438,45.898,-3.906,34.668
41.992,21.973,36.133,2.441,28.32
34.18,22.949,18.555,1.465,52.734
25.879,23.926,29.297,-1.465,-0.977
20.996,21.484,27.832,-1.465,-16.602
27.832,22.949,28.809,0.488,-8.301
44.434,26.367,30.762,9.277,20.02
37.598,26.367,16.602,10.742,12.207
22.949,24.902,6.348,2.93,-5.371
17.09,22.949,-4.395,-9.766,-7.812
24.902,22.949,11.23,-11.719,-9.766
38.086,21.484,25.879,0,27.344
34.18,20.02,4.395,1.465,-6.836
25.391,22.949,0.977,-0.488,-55.176
20.02,28.809,6.836,-4.883,18.066
28.32,35.156,3.418,-13.672,65.918
44.434,37.598,10.254,-8.789,-24.414
40.039,35.645,18.555,0.977,-28.32
31.25,34.668,16.602,4.395,18.066
30.762,35.645,-1.953,0,-39.062
34.18,39.062,-0.488,-4.883,-1.953
46.387,41.016,14.648,1.465,97.168
46.387,39.062,18.555,4.395,108.398
33.203,38.086,15.625,0.488,65.43
24.902,37.598,6.348,-10.254,13.184
24.414,34.18,7.812,-22.461,-5.859
35.156,32.715,25.391,-17.09,-19.531
36.621,33.691,18.066,-8.301,-3.906
28.32,38.086,23.926,-9.277,23.926
23.926,41.016,33.203,-11.23,43.457
25.391,39.062,14.16,-20.508,22.461
42.969,38.086,20.508,-19.043,9.277
53.711,37.109,31.738,-4.883,2.441
39.062,38.086,33.691,-4.883,13.672
28.32,39.062,30.762,-12.695,-21.484
32.227,35.645,37.109,-20.508,11.719
42.969,34.668,51.27,-15.625,47.363
51.758,35.645,42.48,1.465,12.695
42.969,36.621,32.715,4.395,20.508
31.25,39.062,39.551,-2.93,-6.836
28.809,35.156,31.738,-7.812,-6.836
42.48,32.227,27.832,-5.371,1.953
55.176,35.156,28.809,9.766,1.953
45.898,35.645,25.879,17.578,32.715
35.645,33.203,18.555,9.277,43.945
31.738,30.273,6.348,-0.977,47.852
41.504,30.273,9.766,0,25.879
52.246,28.809,20.508,11.719,-35.645
37.598,25.391,19.531,15.137,40.527
23.438,24.414,21.973,8.301,88.867
19.043,23.926,16.602,1.953,29.297
30.762,25.391,20.508,0,37.598
45.898,26.367,26.855,10.254,23.438
35.156,25.391,17.09,14.16,-5.371
22.461,24.414,11.719,6.836,-7.324
19.043,22.461,6.348,1.953,21.484
23.926,21.973,8.301,-2.93,29.297
37.598,24.414,21.973,0.488,47.852
37.598,22.461,21.973,2.93,44.434
28.809,24.414,26.855,-1.953,16.113
22.461,31.25,25.391,-9.277,52.246
25.879,30.762,24.414,-13.184,62.988
43.457,29.297,30.273,-4.395,20.508
40.527,26.855,25.879,0.977,-8.789
21.973,21.973,22.461,-1.953,37.598
14.648,20.508,16.113,-11.719,36.133
16.113,22.949,25.879,-22.949,6.836
30.273,24.902,38.574,-20.996,16.602
30.273,23.926,36.621,-9.277,41.016
17.09,22.949,20.996,-6.348,87.402
16.113,27.344,4.883,-12.695,72.266
20.996,29.785,3.906,-20.508,35.156
35.156,29.785,13.184,-12.695,44.922
47.363,32.227,-3.418,-4.883,30.273
35.645,32.227,-7.812,-8.789,11.719
22.461,32.715,-7.324,-10.254,35.156
19.043,33.691,-26.367,-15.137,41.992
32.227,35.645,-18.066,-12.695,11.719
44.922,39.062,-6.348,3.418,-21.484
37.598,42.969,2.441,5.859,-40.527
26.855,40.039,-2.441,1.953,-20.508
26.367,38.086,-16.602,-3.906,20.02
40.039,42.48,-0.488,-6.836,-3.906
52.734,37.598,9.766,2.93,12.695
43.457,32.715,9.766,5.859,39.062
33.203,33.203,11.23,-0.488,14.648
28.809,30.762,-0.977,-5.371,8.789
33.203,30.273,-7.812,-7.324,31.25
41.992,31.25,-16.602,-2.441,-16.113
32.227,34.18,-7.812,-0.977,-6.348
22.949,38.574,5.859,-7.324,-26.367
20.02,40.039,7.812,-11.23,-14.648
30.762,37.598,20.02,-11.23,101.562
48.34,34.668,21.973,-2.93,90.82
38.574,34.668,16.113,1.953,8.301
27.832,38.086,26.855,-1.953,45.898
23.926,36.133,20.996,-6.348,69.336
33.691,36.621,7.324,-6.836,21.484
50.781,39.551,15.137,-0.977,55.664
42.48,37.598,20.508,2.93,66.895
31.25,38.086,27.344,3.906,63.477
29.297,41.016,23.926,-1.465,51.758
36.133,41.504,21.484,-5.371,43.945
50.293,43.457,34.18,-1.953,56.152
53.223,44.434,34.18,3.418,14.648
42.969,43.457,29.785,0,8.789
29.785,39.551,30.273,-10.742,26.855
28.809,38.574,29.297,-14.648,-15.137
41.992,39.062,34.18,-6.836,-3.906
44.434,33.203,28.32,-0.977,26.367
34.18,33.203,26.855,-0.977,-6.348
31.25,32.227,27.344,-2.93,-6.348
35.645,30.273,20.508,-8.301,29.297
46.875,33.203,24.902,-3.418,39.551
56.641,32.715,24.414,9.277,13.184
45.41,30.762,25.879,11.719,-19.043
24.414,25.879,17.09,-4.883,-35.645
23.926,23.926,3.418,-13.184,-10.742
41.504,25.879,19.531,-5.371,-14.16
46.875,24.414,24.414,1.953,-53.711
31.738,23.926,19.531,1.465,-30.273
18.066,22.949,28.32,-4.395,26.367
18.555,22.949,27.832,-12.207,29.785
32.715,28.32,42.48,-9.766,6.348
44.434,34.668,47.852,0.977,47.363
37.598,36.133,34.668,5.371,61.035
30.273,34.18,24.414,4.883,22.461
28.32,33.203,15.137,-1.465,0.977
42.969,34.668,17.578,0,-7.324
56.641,33.203,23.926,9.766,21.973
39.551,29.785,27.344,8.789,44.922
28.32,29.785,34.668,-1.465,37.109
26.367,27.832,22.949,-7.324,55.176
33.203,28.809,8.789,-7.812,20.02
47.852,30.762,18.555,5.371,-8.789
42.969,27.344,23.438,14.16,23.438
33.203,28.32,16.602,7.812,23.926
26.855,32.715,0.977,0,25.391
29.785,32.227,-8.789,-4.395,73.73
41.016,26.367,-10.742,2.441,-6.836
38.574,24.902,-9.766,9.277,-47.363
27.832,24.414,-7.812,3.906,19.043
20.508,22.949,-4.883,-5.859,7.812
27.344,27.344,7.812,-9.766,-0.488
42.48,28.809,14.648,-3.418,8.789
43.945,26.367,11.23,6.348,-45.41
33.203,24.414,17.578,4.883,-39.551
26.855,21.973,13.184,-5.371,-25.391
35.156,21.484,11.23,-4.395,-58.105
51.758,23.926,24.414,4.395,-48.828
53.223,25.879,12.695,6.836,-6.836
46.875,23.926,8.789,7.324,-4.395
39.062,22.461,13.672,1.465,-18.066
39.551,21.973,1.953,-5.371,-5.371
57.129,20.508,10.742,0.977,-24.414
60.059,22.461,18.066,10.742,-26.855
44.434,26.855,16.113,6.348,-14.648
29.297,24.902,20.508,-1.953,31.25
23.926,21.973,14.648,-4.883,-3.906
35.156,23.926,22.949,-6.348,-60.059
43.945,25.879,30.762,2.93,15.625
36.621,24.414,22.461,4.395,10.254
24.902,23.438,16.113,-9.277,25.879
21.484,23.926,11.719,-16.113,27.344
32.715,24.902,14.648,-13.672,5.859
40.527,23.926,21.973,-4.395,39.551
29.297,23.438,28.809,-6.836,59.57
18.066,26.367,34.18,-10.742,64.453
13.184,26.855,15.137,-12.695,15.625
26.367,26.855,13.184,-11.23,-78.125
44.922,25.879,30.762,3.418,-43.945
38.086,24.414,39.062,6.348,15.137
26.855,27.832,36.621,2.93,-8.789
22.949,33.203,24.902,-0.977,36.133
31.25,32.227,24.902,-1.465,11.23
41.016,29.785,30.762,7.812,-2.441
35.156,33.691,24.414,9.277,57.129
26.367,35.645,21.484,6.348,38.574
25.879,31.738,18.555,1.465,98.633
35.645,30.273,20.508,2.93,74.219
55.176,30.273,23.438,15.625,39.551
48.828,23.438,15.137,20.02,86.426
33.203,22.949,19.043,14.648,57.617
24.902,24.414,9.277,8.789,39.062
22.949,20.02,0,4.883,54.688
39.551,20.508,6.348,12.695,96.68
40.527,24.414,0.977,19.043,94.238
26.367,21.973,1.953,16.113,49.805
15.137,16.113,-0.977,6.836,30.762
20.508,16.113,3.418,-0.488,18.066
40.527,16.602,26.367,4.883,67.871
43.457,9.277,20.02,6.836,100.098
26.855,6.348,18.066,4.395,33.203
14.16,6.836,23.926,2.93,21.973
16.113,4.395,16.602,-3.418,39.551
36.621,7.324,21.484,1.465,39.062
44.922,12.695,25.391,9.277,-2.441
32.227,15.137,28.32,8.301,-18.066
26.855,15.137,30.762,0.488,-24.414
25.879,15.625,31.25,-6.348,-27.832
41.504,17.09,37.109,0.488,-24.902
49.316,17.578,36.621,10.742,7.812
24.902,17.09,24.902,0.977,60.059
15.137,19.531,11.719,-10.254,-10.742
17.578,20.02,12.207,-11.719,-38.574
31.25,16.113,13.184,-8.301,-22.461
42.48,17.09,-2.93,5.859,-30.762
30.273,22.461,-6.836,5.371,-1.465
23.926,24.902,-5.859,-0.488,25.391
20.02,22.949,-12.695,-5.859,53.223
28.32,21.973,-10.742,-6.836,41.504
41.504,21.484,-12.695,6.348,55.664
33.691,18.555,-9.766,11.719,87.891
25.879,20.02,-3.906,10.254,55.664
24.414,20.508,-4.395,5.371,62.988
38.086,20.02,11.719,0.977,41.992
54.199,22.949,11.719,12.207,-11.23
47.363,26.855,2.93,15.625,0.488
33.203,29.785,12.695,7.812,6.836
27.344,32.227,7.324,-1.465,-0.977
34.18,34.18,5.371,-5.371,19.043
41.504,34.18,14.16,2.441,-7.324
31.25,34.668,15.137,5.371,-2.93
23.438,36.621,16.602,3.418,81.055
21.484,38.574,2.93,-1.953,54.199
20.996,34.668,-11.719,-11.719,-6.836
33.691,34.18,3.906,-3.418,17.09
38.086,33.203,9.277,0,26.855
25.391,37.109,8.301,-3.906,42.48
18.066,44.922,0.488,-3.906,5.859
18.555,41.504,-4.395,-6.836,-23.438
31.25,40.527,5.859,-1.465,24.902
30.762,42.969,11.23,7.812,84.961
20.508,43.457,7.324,12.207,37.109
19.043,41.016,-11.23,6.836,-40.039
22.949,38.574,-21.484,1.465,-36.621
38.086,37.598,-15.625,7.324,-12.207
39.551,36.621,-14.16,15.137,-26.367
29.297,36.133,-3.906,15.625,19.531
25.391,36.133,4.395,10.742,40.039
28.32,40.527,5.859,4.395,-14.648
42.969,41.504,25.879,10.254,10.254
46.387,37.109,22.949,14.648,74.707
37.598,35.156,12.695,8.789,80.566
27.344,36.621,21.484,7.812,27.344
23.926,36.621,19.531,4.395,40.527
41.016,34.18,25.879,8.789,64.453
47.363,32.715,32.227,19.043,62.5
40.527,34.668,25.879,18.555,105.469
29.297,31.738,17.578,9.766,111.816
19.043,29.785,9.766,-4.395,39.062
31.25,33.203,20.996,-6.836,14.16
45.898,33.691,25.879,4.395,29.785
39.551,35.156,20.02,3.418,7.324
32.227,40.039,26.855,-2.441,-11.719
29.785,39.062,18.555,-8.301,17.09
40.527,37.598,12.207,-8.789,23.926
58.594,41.016,13.672,2.441,30.273
48.828,44.434,16.113,7.812,46.387
35.156,42.969,12.695,1.465,15.137
33.203,40.039,-0.488,-9.766,27.832
39.062,37.109,-1.465,-12.207,63.477
54.199,39.062,6.348,0,-3.906
49.316,40.527,15.625,5.859,5.859
37.598,39.551,19.043,0,85.938
31.25,41.504,9.766,-7.812,22.949
34.18,43.457,18.066,-10.254,-0.488
51.758,41.016,16.602,-6.348,55.176
48.34,38.086,7.324,-0.977,-5.371
29.785,36.621,12.695,1.953,-26.855
21.484,32.715,5.859,-6.348,-27.344
26.855,29.785,0.488,-13.672,-8.301
46.387,27.832,4.395,-9.277,-45.41
46.387,25.391,-0.488,0.977,-43.457
29.785,25.391,4.883,5.859,30.273
19.531,27.344,17.09,0.977,-20.508
26.855,29.785,20.508,-0.977,31.25
46.875,32.227,19.043,1.953,83.008
52.734,33.203,15.625,10.254,-17.09
39.551,32.715,20.996,11.23,-37.109
31.738,36.621,20.996,1.465,11.719
36.133,38.574,23.438,-4.395,-13.184
46.875,34.668,32.227,-5.371,3.418
49.805,33.691,41.504,1.953,15.137
37.109,34.668,49.316,6.836,37.109
26.855,35.645,42.48,-1.953,28.32
26.855,38.574,43.945,-5.371,17.09
33.691,39.551,51.758,-0.977,-19.043
40.039,39.551,43.945,5.371,6.348
38.086,40.039,41.016,3.906,56.152
26.367,35.156,46.875,-5.371,37.598
19.043,28.809,32.227,-16.602,52.734
31.25,28.809,26.367,-15.137,91.309
40.039,30.273,34.18,-5.859,63.477
26.855,27.832,36.133,-4.395,9.766
17.09,26.367,24.902,-7.812,29.297
14.16,26.367,7.812,-17.09,20.508
25.879,23.926,10.742,-16.602,53.223
36.133,23.438,17.09,-12.695,64.941
20.996,23.926,22.949,-12.695,48.34
8.789,23.438,32.715,-12.207,41.992
10.254,22.949,28.32,-14.16,70.312
22.461,25.879,28.809,-11.719,26.855
33.203,21.973,34.668,-3.906,-1.953
25.879,20.02,38.086,-1.465,72.754
13.672,23.926,39.062,-8.301,62.5
7.324,20.996,32.227,-13.672,-0.977
15.625,18.555,32.227,-17.578,-20.02
27.832,21.973,35.645,-13.672,-35.645
28.32,25.879,26.855,-6.348,-24.902
20.508,27.832,35.645,-9.277,-23.926
15.625,26.855,38.574,-15.625,0.977
23.926,21.973,30.762,-14.648,45.898
37.598,22.461,45.898,-7.812,45.898
36.621,24.414,48.828,-6.836,26.367
25.879,23.438,43.945,-3.418,29.785
20.996,21.484,42.48,-2.93,52.734
31.738,22.949,33.691,-4.395,66.895
63.477,26.367,26.855,24.414,59.082
48.34,22.949,34.668,18.066,28.32
2.441,17.09,35.645,-26.367,-5.859
-9.766,15.625,20.02,-36.621,-6.836
-9.766,14.648,15.625,-38.574,13.672
-5.859,10.742,33.691,-42.48,65.43
-12.207,10.254,42.48,-50.293,47.363
-37.109,9.766,39.062,-62.5,-3.418
-53.223,7.324,30.273,-70.801,0.488
-58.594,5.859,25.879,-84.473,9.766
-52.246,8.301,41.016,-87.891,-12.695
-41.504,10.742,40.527,-73.73,-22.949
-58.105,9.277,50.781,-78.613,-4.395
-70.801,3.906,69.336,-82.031,-7.812
-63.965,-4.883,55.664,-82.52,-14.648
-44.922,1.465,59.082,-72.266,59.082
-28.809,-4.395,58.594,-54.199,130.371
-30.273,-12.695,49.316,-49.805,64.453
-38.574,8.301,56.641,-44.434,30.273
-36.621,19.043,48.34,-44.922,49.805
-19.043,15.625,49.316,-41.016,74.707
2.93,14.648,44.922,-21.973,15.137
3.906,17.09,44.434,-10.254,22.461
-0.977,20.996,51.758,-8.301,54.688
-1.465,19.043,44.434,-10.742,53.223
9.766,15.137,43.457,-13.184,47.852
33.203,16.113,47.852,0.488,33.691
30.273,19.043,36.133,14.648,39.551
19.043,19.531,27.832,11.719,-30.273
20.508,22.461,30.762,5.859,17.578
33.203,26.367,41.504,13.672,70.801
52.246,25.391,34.18,25.391,-17.578
51.758,22.461,19.531,27.344,-58.594
45.41,25.879,29.785,29.297,-15.625
40.039,27.832,20.996,30.273,3.418
42.969,25.391,15.625,26.855,65.43
59.082,23.438,18.555,33.203,62.5
59.082,23.926,19.043,38.574,4.883
43.945,22.461,23.926,34.668,73.242
31.738,22.949,8.301,25.391,102.539
29.297,22.461,5.859,16.602,37.109
46.387,22.949,23.438,18.555,38.574
51.758,21.484,11.719,23.438,49.316
44.434,25.879,4.883,20.508,12.207
34.668,31.738,9.766,9.277,10.742
31.25,31.25,2.93,0.977,28.32
52.246,32.227,11.719,9.277,95.215
62.988,34.18,18.555,21.484,81.055
56.152,32.227,12.207,18.066,-15.625
44.922,24.902,3.418,7.812,-12.207
39.551,24.414,-6.836,2.93,26.367
53.711,25.879,-5.859,8.789,-20.508
60.547,27.344,3.906,16.602,4.395
46.875,28.32,9.766,14.648,66.895
35.645,26.855,7.812,11.23,-10.254
33.203,27.344,5.371,4.395,-29.297
48.34,29.297,12.695,7.812,-16.113
58.105,31.738,10.254,16.602,-19.531
52.246,34.668,7.812,20.508,5.859
46.387,33.203,8.301,15.137,12.695
39.551,29.785,0.977,3.906,17.09
47.852,30.273,6.348,5.859,32.227
57.129,33.203,22.461,12.207,88.379
50.293,28.32,17.578,14.648,17.578
43.457,31.738,11.719,17.578,-31.25
40.039,37.109,10.742,8.789,25.391
46.875,33.203,19.043,1.465,-26.855
62.5,34.18,30.273,13.184,-42.969
56.641,36.133,27.832,14.16,-35.645
42.48,41.016,33.691,9.277,8.789
37.598,42.48,26.367,4.395,60.059
43.945,39.551,16.602,-1.465,-19.043
53.711,39.062,19.043,3.906,0.488
49.805,40.039,24.414,8.789,23.438
45.41,41.016,32.227,6.836,26.855
39.551,36.621,19.043,0.488,49.805
44.434,35.645,11.719,-5.371,22.949
57.617,39.551,23.926,-1.465,41.504
60.547,41.504,25.879,2.93,10.254
50.293,41.992,33.691,1.465,-47.363
38.574,39.062,36.621,-2.93,-10.254
47.363,39.551,32.227,-4.883,28.809
66.895,41.016,39.551,6.836,22.949
66.895,38.574,46.387,18.555,42.969
53.223,36.621,47.852,16.602,92.285
47.852,32.715,37.598,9.766,31.25
50.781,35.156,39.062,4.883,-20.996
57.617,35.645,42.48,3.418,-10.742
60.059,37.109,37.598,8.789,25.879
46.387,37.109,34.18,8.301,37.598
40.039,35.645,30.273,4.395,18.555
42.969,34.18,24.902,-3.418,5.859
55.176,34.18,35.156,1.465,-11.719
67.383,35.645,39.551,21.973,-15.625
63.477,39.062,32.715,23.438,-17.578
57.617,43.945,24.902,19.043,27.832
56.152,42.48,16.113,17.09,56.152
65.918,35.645,18.555,18.066,-20.02
73.73,33.691,29.297,28.32,-1.953
64.941,33.691,18.555,30.762,87.402
51.758,34.18,8.789,23.926,85.938
50.781,37.109,5.371,17.09,11.23
65.43,36.621,17.09,16.113,-10.254
83.008,37.598,17.578,27.344,34.18
70.312,34.668,11.719,26.367,-18.066
56.152,34.18,24.902,17.09,-17.578
49.805,35.156,15.137,13.672,63.965
55.664,36.621,4.883,8.301,62.5
75.195,33.691,-2.93,17.578,26.367
81.543,32.227,-14.648,39.551,14.16
63.477,30.273,-14.16,42.969,43.457
31.738,30.762,-26.367,10.742,27.344
41.992,38.086,-21.973,0,12.207
80.566,35.156,-9.766,26.855,37.598
83.008,35.156,-20.996,41.504,-41.016
60.547,37.598,-15.625,38.086,-73.242
52.246,30.273,-20.508,33.691,-25.879
59.082,26.367,-23.926,26.855,30.762
83.984,28.809,-15.625,41.504,14.16
87.402,25.879,-9.766,55.176,-5.859
71.777,21.484,-4.395,46.387,84.473
66.895,17.578,-9.766,35.645,86.914
68.359,18.555,-10.742,30.273,23.438
84.473,23.438,0.488,43.457,66.406
95.703,26.855,2.441,52.246,45.41
86.914,32.715,6.836,41.504,25.391
79.102,36.621,7.324,38.574,29.297
73.73,35.156,4.395,33.203,-8.301
74.707,32.715,14.16,34.668,14.648
78.613,32.227,22.461,46.387,17.09
69.824,32.227,26.367,40.039,-30.762
60.547,32.227,26.367,28.809,27.344
61.035,30.273,20.02,25.879,49.805
76.66,30.762,21.484,28.32,-0.977
81.543,28.32,38.086,35.645,38.086
70.801,23.926,41.992,35.156,64.453
58.105,21.484,32.715,26.855,44.434
53.223,21.484,27.344,20.508,-29.785
70.801,27.344,26.855,18.555,-17.578
77.148,32.227,26.367,22.461,26.855
63.965,36.133,21.973,20.508,12.695
57.617,41.016,20.02,17.578,48.34
67.871,41.016,5.859,23.438,48.828
55.176,37.109,17.578,14.648,13.184
49.805,28.809,40.527,20.02,-5.859
58.105,28.32,46.875,33.203,-33.203
52.734,25.879,42.969,30.273,-27.832
53.223,20.996,29.297,33.203,-19.043
59.082,24.902,42.48,31.25,42.969
68.848,32.227,39.551,29.297,74.219
54.199,37.598,16.602,27.344,6.348
41.992,36.621,27.344,29.785,-0.977
39.062,32.227,30.273,26.855,-44.434
40.039,24.414,21.973,17.09,-68.848
63.965,24.902,20.996,26.855,-58.594
62.5,29.297,18.066,32.715,-25.879
41.504,31.738,19.043,29.785,24.414
39.551,33.203,8.301,19.043,21.484
45.898,33.203,4.883,7.324,-3.906
52.246,29.785,13.184,5.371,15.137
40.527,25.391,22.949,13.184,37.598
31.25,23.926,31.738,13.184,-30.273
33.691,26.855,28.32,-3.906,-28.809
29.785,25.879,27.344,-8.789,-5.371
37.109,20.02,30.273,8.789,8.789
37.598,21.484,27.344,9.766,43.945
29.785,24.902,39.062,0.977,39.551
24.414,21.484,33.691,0.488,42.48
23.438,14.16,13.672,-2.93,-13.184
32.715,12.207,20.508,4.883,-25.879
41.504,17.578,33.203,18.555,-4.395
40.527,21.973,32.227,16.113,31.25
22.949,21.484,29.785,1.953,10.254
27.344,20.996,28.32,-14.648,9.766
50.293,19.531,34.18,-0.977,36.133
52.246,17.578,30.762,14.16,83.008
38.086,15.625,25.879,8.789,31.25
39.551,19.531,32.227,14.16,-57.617
46.387,20.996,31.25,10.254,-32.715
63.965,19.531,29.785,0,-14.648
65.43,17.578,35.156,3.418,-20.02
47.852,15.137,33.691,10.742,-54.199
41.992,17.578,24.414,5.371,-22.949
35.156,19.043,13.184,-8.301,2.441
41.992,22.461,15.625,-6.836,18.555
48.828,22.949,26.855,3.418,14.16
41.016,23.438,36.133,0,28.32
35.156,23.438,42.48,-8.301,66.406
29.297,20.508,34.18,-10.254,45.41
34.668,19.531,35.645,-8.301,2.93
47.363,19.043,40.527,2.441,36.133
45.41,16.602,44.434,0.488,68.359
34.18,16.602,47.363,5.859,54.199
20.02,15.625,40.527,3.906,76.66
28.809,13.184,40.039,1.465,51.758
53.223,12.207,40.527,10.742,23.926
58.105,13.184,24.414,22.949,33.691
43.457,17.09,28.32,27.344,30.273
38.086,18.066,38.574,24.902,42.48
54.199,20.508,29.785,27.832,58.105
70.312,25.391,24.414,31.25,55.176
63.477,26.367,20.508,38.086,-7.812
49.316,31.738,28.809,29.785,-0.977
40.527,33.691,24.902,10.254,19.043
46.875,29.785,17.578,5.371,37.109
49.805,21.484,27.832,16.113,67.871
45.41,20.02,24.902,18.555,14.16
34.668,20.02,14.648,6.836,17.578
17.578,15.137,12.207,1.465,55.664
32.227,18.555,13.672,0.488,34.18
47.363,18.066,29.785,8.789,1.953
42.48,19.531,19.043,19.531,21.484
28.32,22.461,7.812,12.695,21.973
20.508,23.926,10.742,1.953,-13.184
16.602,25.879,5.371,-6.836,6.348
31.738,27.832,16.113,-0.977,0
42.969,33.203,28.809,12.207,-18.066
29.297,31.738,31.25,-5.371,-38.086
17.09,26.367,21.484,-9.277,28.809
16.113,23.438,10.254,0,95.215
27.832,18.555,17.09,-5.859,73.73
36.621,20.996,22.949,-1.465,58.594
34.668,24.902,22.949,2.441,35.156
29.785,23.438,18.066,-9.277,31.25
33.203,26.855,4.883,-14.16,23.438
41.504,27.344,7.324,-9.766,13.184
47.852,20.02,8.301,-12.695,54.199
39.062,22.949,0.977,-16.602,53.711
25.879,21.973,-2.441,-10.254,-41.992
25.391,15.137,-8.301,-5.859,-32.227
40.527,17.578,-0.977,-7.812,24.414
50.781,19.531,5.371,-10.742,80.078
41.504,23.438,4.883,-3.418,75.195
32.715,22.461,18.066,-8.789,17.09
12.695,17.09,15.137,-27.832,24.902
10.254,16.113,15.137,-31.738,25.391
32.715,25.391,31.738,-14.16,28.809
20.996,29.785,42.48,-13.672,17.09
-19.531,12.207,46.875,-33.203,11.719
-34.668,8.301,37.598,-49.316,44.922
-17.09,19.043,40.039,-52.246,36.621
-8.301,11.719,51.27,-51.758,36.621
-42.969,5.859,47.363,-82.52,-27.344
-57.617,8.301,44.434,-89.355,-62.988
-63.477,7.324,51.758,-95.215,22.949
-72.754,7.812,61.035,-108.398,9.766
-52.246,5.859,59.57,-100.586,-32.227
-49.316,7.812,52.246,-108.887,4.395
-68.848,9.277,62.012,-121.582,35.156
-75.684,8.789,62.988,-123.535,-12.695
-69.824,10.254,63.477,-131.836,-9.766
-58.594,8.301,75.684,-122.07,71.289
-60.547,6.836,75.195,-111.328,46.387
-69.824,11.719,75.195,-106.445,52.734
-78.613,14.648,67.383,-105.469,59.57
-77.148,13.184,51.27,-115.234,-35.645
-57.129,14.648,64.453,-105.957,-32.227
-43.945,17.578,62.012,-96.68,21.973
-49.805,18.555,53.711,-104.492,30.762
-67.871,16.602,70.801,-102.539,77.637
-72.266,15.137,73.242,-104.98,50.293
-51.27,16.602,77.148,-103.027,38.086
-43.945,13.672,92.773,-88.867,53.711
-61.523,12.695,104.004,-89.355,13.672
-67.871,17.578,100.098,-95.215,25.879
-70.312,14.16,91.309,-102.539,42.969
-53.711,13.184,84.961,-97.656,7.324
-32.715,16.602,66.895,-91.797,35.645
-41.504,18.555,49.316,-94.727,19.531
-49.316,14.16,47.852,-94.727,-32.227
-45.898,9.766,37.598,-97.168,4.883
-33.203,11.719,33.203,-88.379,20.996
-11.719,14.648,36.621,-66.895,20.02
-15.137,12.207,38.574,-60.059,-0.977
-22.461,12.695,33.203,-61.523,-46.875
-14.16,14.648,32.715,-48.828,-24.414
-4.395,11.23,35.645,-53.711,-5.859
22.949,13.672,34.668,-38.574,24.902
30.273,15.137,41.016,-14.648,-9.277
20.996,13.672,28.809,-14.16,0.488
22.461,16.113,8.301,-11.719,16.602
38.086,19.531,11.23,-0.977,-15.137
63.477,22.461,6.836,15.625,6.836
66.895,24.414,9.277,27.344,40.039
64.453,28.809,29.297,30.273,40.039
65.918,27.832,20.02,28.809,47.852
71.777,28.32,9.766,31.738,65.43
88.379,27.832,11.23,38.574,17.578
91.309,25.879,9.277,44.922,-7.324
79.102,28.809,2.93,43.457,47.363
74.219,32.715,-10.254,42.969,16.602
80.078,33.203,-7.324,46.387,6.836
93.262,35.156,16.113,50.781,41.016
100.098,41.016,18.555,49.316,6.348
88.379,38.086,21.484,51.27,-55.664
78.613,37.109,24.902,51.27,-32.715
80.078,40.039,13.672,44.434,-4.883
97.168,41.992,19.531,53.223,-19.531
102.051,43.945,22.461,69.336,-29.297
94.238,44.434,17.578,73.242,-9.277
86.426,45.898,6.836,71.777,32.715
82.52,46.875,-2.93,67.383,58.594
101.074,46.387,1.953,68.848,81.543
111.816,44.434,-3.906,70.312,48.34
101.562,42.969,-3.418,68.359,23.926
86.426,42.969,2.441,70.312,57.129
83.496,42.969,-8.789,60.547,59.57
100.586,43.945,-10.254,60.059,-8.301
108.887,44.434,4.395,67.383,-32.715
92.773,43.457,13.672,69.336,30.273
85.449,42.969,5.371,66.406,11.719
83.008,41.504,-6.348,51.758,-31.25
88.379,39.551,-2.93,47.363,21.484
101.562,38.086,8.301,58.594,68.848
92.773,35.156,16.113,56.641,44.434
83.984,32.715,9.277,43.945,-10.254
76.172,32.715,3.906,36.621,-15.625
79.102,35.156,11.23,36.621,22.461
92.773,33.691,8.789,48.34,1.465
81.543,28.32,6.836,46.387,21.484
69.336,29.297,0.977,36.133,60.059
66.406,31.25,-20.02,29.297,41.504
72.754,30.273,-15.625,26.367,14.648
89.355,35.645,1.465,36.133,32.715
83.984,41.016,1.953,37.109,19.531
73.73,44.922,9.277,31.738,1.465
64.453,39.062,6.836,26.367,80.078
68.848,34.18,6.836,19.043,64.941
88.867,37.109,27.344,22.949,56.152
78.613,36.133,22.949,29.785,66.406
60.547,34.668,18.555,23.926,42.48
54.199,35.156,17.09,10.254,51.27
52.734,34.18,9.766,8.301,33.203
71.777,34.668,11.719,16.602,-12.207
74.219,34.18,20.996,21.973,22.461
58.594,31.738,15.625,17.09,82.52
49.316,31.25,-4.395,11.23,-3.906
49.316,32.715,4.395,7.324,-2.93
62.5,33.691,19.531,7.812,23.926
71.777,35.645,16.602,20.508,-1.953
57.129,32.715,23.926,17.09,46.387
41.992,29.297,21.484,5.371,38.086
46.875,31.738,16.602,3.418,28.809
64.453,32.227,32.715,2.93,48.828
72.266,32.227,22.461,4.395,62.988
65.918,36.621,15.625,3.418,-2.441
56.641,34.18,38.086,1.465,-73.73
49.805,30.762,37.598,-3.418,7.324
57.617,28.809,27.832,-2.93,82.031
54.199,23.926,28.32,5.371,33.203
51.27,29.297,21.484,0.977,49.805
46.387,28.809,11.719,2.441,89.844
31.738,23.438,6.348,-3.418,-6.348
45.898,24.414,12.695,-10.742,-22.461
59.57,23.438,15.625,11.719,56.152
37.109,23.438,10.254,6.348,36.133
33.203,27.832,20.02,-12.207,12.695
35.156,27.832,19.043,-6.348,31.25
33.203,22.949,22.461,1.953,23.926
47.852,23.926,37.598,2.93,41.504
47.852,23.438,39.062,0.488,49.316
37.598,20.996,19.531,-9.277,74.707
29.297,22.949,6.836,-19.531,58.594
43.457,22.461,15.625,-19.043,-10.254
50.781,18.066,27.832,-9.766,8.789
36.621,17.09,27.344,0,79.102
25.391,18.066,25.879,-4.395,43.945
15.625,17.578,16.113,-21.484,-20.02
23.926,19.043,23.438,-3.906,3.418
40.527,19.043,32.715,11.23,61.035
34.18,21.484,35.156,-4.883,11.23
22.949,24.414,34.668,-3.906,-0.488
15.137,23.438,12.207,-10.742,34.18
17.09,20.508,1.465,-20.02,22.949
34.18,16.113,3.418,-12.207,28.32
32.715,11.23,2.441,-5.859,14.16
14.16,5.859,11.23,-8.789,14.648
11.23,5.859,8.789,-19.531,30.273
19.043,11.23,-9.766,-25.391,34.668
30.762,14.16,-10.254,-17.09,43.457
31.25,18.066,6.836,-3.418,26.367
26.367,20.508,14.16,2.441,-13.184
20.996,18.555,4.395,-3.418,-14.16
24.414,21.973,0,-14.648,-18.555
40.039,23.438,10.742,-14.16,19.043
50.293,25.879,9.766,-3.906,62.988
37.109,30.273,6.836,-3.418,45.41
18.066,27.832,7.324,-0.977,21.484
13.672,29.785,17.578,-8.301,102.051
29.785,35.156,32.715,-2.441,101.562
47.363,34.668,16.602,6.836,23.438
38.086,34.668,13.672,-6.836,-31.25
22.949,31.25,30.273,-4.395,-44.922
20.996,30.762,13.672,-13.184,6.348
36.621,30.762,0.977,-20.02,-18.555
47.852,25.391,16.602,7.324,-13.672
39.062,23.926,13.672,16.602,14.648
35.645,25.879,-7.324,-1.953,-28.32
31.738,23.926,-10.742,-6.348,-33.203
41.016,21.484,-7.324,0.977,-46.875
51.758,22.949,-3.906,8.789,-5.859
38.574,23.438,2.93,5.371,48.34
27.832,20.996,0.488,0,8.789
23.438,18.555,-7.324,-0.488,-19.531
30.762,16.602,2.441,2.93,25.391
46.875,17.578,4.883,8.789,71.777
39.551,22.461,4.883,7.812,66.895
39.062,26.367,13.184,0,24.414
28.32,19.531,1.953,-1.953,31.738
24.902,14.648,-2.441,2.93,-14.648
42.969,20.996,-0.488,2.441,-44.434
42.969,24.414,-1.465,8.301,20.508
32.227,21.973,2.93,10.254,73.73
25.391,20.508,0.977,7.324,83.984
31.738,21.484,-1.465,2.93,23.926
46.387,20.508,-4.883,-0.977,-25.391
48.34,17.578,-6.836,8.301,13.672
30.762,16.602,-1.953,10.254,7.812
21.973,18.555,-4.883,6.348,-18.066
24.414,20.508,-0.488,7.812,31.25
35.645,21.973,0,6.836,42.969
32.715,19.043,1.465,9.277,39.551
24.902,18.555,1.465,8.789,21.484
22.949,22.461,-7.324,2.441,4.883
21.973,23.926,1.953,-2.441,32.227
43.457,22.949,7.324,0.488,11.719
54.688,23.438,-1.465,8.301,10.742
37.109,22.461,5.371,4.883,50.293
30.273,18.555,11.23,2.93,23.438
39.062,18.066,6.348,-1.465,22.461
57.617,22.949,8.789,-11.23,2.441
65.43,19.531,13.672,-2.93,20.02
54.688,20.996,7.812,4.395,50.293
41.992,22.461,2.441,-2.441,70.801
29.297,17.578,-3.418,-6.348,87.891
39.551,16.602,-8.789,-2.93,55.176
56.641,15.137,1.953,9.766,62.012
42.48,12.695,11.719,5.371,20.996
32.715,16.602,11.23,2.93,42.969
32.715,16.602,0.977,-1.953,27.832
41.504,11.719,12.695,-9.277,-24.902
58.105,12.207,20.508,-2.441,28.32
41.504,12.207,12.695,0.488,56.641
25.391,12.207,9.277,3.418,5.371
29.297,11.719,4.883,-1.465,33.203
37.109,13.672,-0.977,-2.93,57.617
48.34,14.648,0.488,6.836,14.16
42.969,14.648,1.465,5.371,3.418
20.996,16.602,8.789,0,20.996
6.836,15.137,13.184,-14.16,40.527
23.926,10.742,17.09,-15.137,-8.789
39.551,7.812,13.672,-10.742,-30.762
36.621,9.277,0.977,-5.371,-63.477
30.273,12.207,8.301,-0.488,-37.109
17.09,11.719,3.906,-10.742,4.395
27.832,12.207,-0.977,-19.531,4.395
48.34,17.578,0.977,-9.277,13.184
51.27,20.02,-3.418,2.93,-42.969
37.109,19.531,-2.441,1.465,-26.855
26.855,19.043,-8.789,-1.953,-39.062
32.715,19.531,-4.883,-3.906,-43.457
51.27,21.484,7.324,0.977,-0.977
48.828,21.973,12.207,7.324,10.742
33.691,25.391,10.254,0.488,32.227
26.367,27.344,2.441,-5.859,61.523
13.672,22.949,-13.184,-11.719,53.711
23.926,20.508,-21.973,-10.742,-6.348
38.574,21.484,-10.254,0.488,-36.133
30.273,21.973,11.23,-0.488,-16.602
19.043,23.438,14.648,-11.23,33.203
12.695,24.414,0,-21.973,43.457
28.809,21.484,-3.906,-15.625,18.066
45.41,24.902,6.348,-2.441,60.547
32.227,24.902,11.719,-1.953,31.25
20.02,24.414,6.836,-6.348,34.18
18.066,27.832,-0.977,-17.578,83.984
31.25,25.391,0,-17.578,16.602
43.945,25.391,5.859,-11.23,-4.395
24.902,25.879,15.137,-11.719,51.758
5.859,23.926,28.32,-14.648,83.496
6.348,23.926,19.531,-23.438,66.895
13.184,24.902,21.973,-24.414,14.648
20.996,22.949,32.227,-22.461,0
16.113,24.902,26.367,-11.23,1.465
4.395,28.32,23.926,-9.766,29.785
0.977,26.855,24.902,-18.555,47.852
7.812,22.461,32.715,-16.113,24.902
19.043,22.949,28.809,-6.348,26.367
17.578,24.414,25.391,-1.953,51.27
2.93,25.391,36.133,-0.488,49.805
-5.371,25.879,28.32,-9.766,47.852
0.977,27.832,29.785,-14.16,25.391
20.508,25.879,38.086,-4.883,3.906
20.02,24.414,44.434,1.465,2.441
11.719,27.344,42.969,-0.977,44.434
6.836,21.973,21.973,-15.625,-1.953
5.371,20.02,23.926,-19.043,-38.086
20.996,22.949,32.715,-4.395,38.086
22.949,23.438,28.809,-1.953,34.18
21.973,27.832,45.41,-2.441,6.348
24.902,29.297,47.363,-7.812,33.691
21.484,27.344,41.992,-13.672,23.926
37.109,32.715,42.969,-9.277,14.648
40.527,38.574,35.156,-9.766,17.09
24.902,36.621,29.297,-8.789,-17.09
16.602,35.645,10.742,-7.812,-84.473
22.461,37.598,8.301,-16.602,-7.812
44.922,36.621,9.766,-17.578,76.66
45.898,33.203,5.859,-8.301,34.18
22.461,28.32,19.043,-3.418,70.312
19.531,27.832,16.602,-7.324,53.223
21.973,26.855,4.883,-15.137,19.531
28.32,24.902,13.184,-13.672,85.449
35.645,23.926,10.742,-1.465,81.055
26.367,23.438,10.254,-5.859,-0.977
18.555,24.902,7.324,-21.484,3.906
16.602,22.949,-5.371,-28.809,39.551
22.461,20.02,5.371,-27.344,16.602
29.785,22.461,25.879,-19.043,90.82
21.973,23.926,24.902,-12.695,126.953
10.742,22.949,17.09,-16.602,40.039
4.395,23.926,15.625,-29.297,18.555
12.695,27.832,22.949,-27.832,74.219
32.227,31.25,24.414,-20.996,35.645
31.738,34.18,25.879,-22.461,-33.691
19.043,34.668,28.32,-24.902,12.207
7.812,32.227,17.09,-27.832,7.324
14.648,30.273,22.949,-23.438,-4.883
33.203,26.367,24.414,-16.113,48.828
28.32,22.949,22.461,-20.02,7.812
11.719,25.879,27.344,-16.602,-16.113
4.395,24.902,12.695,-20.508,17.09
8.301,23.438,16.113,-31.25,24.414
24.414,22.461,27.344,-20.02,2.93
24.414,19.043,33.203,-7.812,34.18
13.672,22.949,38.086,-6.348,37.598
6.836,23.438,24.902,-12.207,39.551
13.672,20.508,20.508,-13.672,77.637
25.879,20.508,21.484,1.465,36.133
27.344,20.996,27.344,12.695,-23.438
21.973,21.484,30.273,6.836,10.742
10.254,21.484,18.066,0.488,78.613
7.812,16.602,21.973,1.953,44.922
28.809,13.672,32.227,7.812,4.395
25.391,19.043,26.367,2.441,-10.254
0.488,19.531,28.809,-5.371,-18.555
-11.719,17.09,28.809,-7.324,27.832
-15.625,14.16,14.16,-15.625,40.039
3.418,16.113,17.09,-23.438,26.367
9.277,14.16,27.344,-15.137,33.691
-5.859,9.277,28.809,-20.996,7.324
-18.066,10.254,22.949,-33.203,-43.457
-25.879,8.789,21.973,-29.785,-20.508
-11.23,9.766,28.809,-25.879,67.871
-4.883,11.23,31.738,-31.738,39.551
-27.832,8.789,24.902,-24.902,-7.812
-42.48,5.371,22.949,-20.508,-7.812
-35.645,1.953,21.484,-41.504,9.277
-19.043,2.93,24.902,-41.504,25.391
-11.719,3.418,20.02,-23.438,-27.344
-19.531,6.348,27.344,-22.949,16.113
-19.531,10.254,36.621,-23.926,63.477
-24.414,5.859,24.902,-17.578,-31.25
-13.672,8.789,26.855,-16.602,-19.531
2.441,13.672,25.391,-16.602,-10.742
-17.09,13.672,30.762,-17.09,-55.664
-22.461,13.672,29.785,-19.043,-61.035
-24.414,11.719,18.066,-28.32,-32.715
-3.906,16.113,33.203,-27.832,30.273
-8.301,21.973,40.039,-20.996,51.27
-45.41,22.461,23.438,-18.555,11.719
-16.113,19.043,25.391,-19.531,31.738
-12.207,19.043,20.508,-37.598,61.035
-13.184,19.043,10.742,-35.645,25.391
25.879,17.09,12.207,-14.648,14.16
35.156,23.926,13.184,-8.789,30.273
10.742,25.391,4.395,-17.09,10.254
-4.395,19.043,-1.465,-32.227,12.207
11.719,21.973,3.906,-31.25,6.836
27.832,22.461,10.254,-20.508,12.695
10.254,19.043,13.672,-18.555,16.113
-5.859,19.043,10.742,-20.508,23.926
2.93,19.531,-7.324,-23.438,56.641
14.648,21.484,-10.254,-17.578,33.691
32.227,23.926,-0.488,-13.184,57.617
39.551,26.855,1.465,-5.371,36.621
36.133,27.832,10.254,2.441,-4.395
27.832,26.855,10.742,-4.395,-0.977
28.809,25.879,10.742,-4.883,-1.465
49.805,25.879,16.602,3.418,53.711
53.223,24.902,17.09,14.648,33.691
49.316,24.902,12.695,17.578,-5.371
50.781,25.879,-1.953,6.348,10.742
55.664,25.391,-17.09,9.277,1.465
81.055,26.855,-19.531,26.367,-0.488
93.75,26.855,-24.414,29.785,11.23
83.984,29.785,-32.715,13.184,54.688
74.219,28.32,-33.203,11.23,19.043
83.008,28.809,-37.598,19.043,7.324
95.703,34.18,-26.367,16.113,34.668
96.68,27.832,-10.742,24.414,-3.418
81.055,28.809,-7.324,23.438,21.973
76.66,31.25,-17.09,21.973,37.109
76.66,29.297,-36.133,19.531,3.906
69.824,28.32,-24.902,11.719,19.043
77.637,27.344,-20.508,18.066,64.453
89.355,30.273,-29.297,16.602,68.848
81.055,36.621,-25.879,2.93,71.777
60.059,33.691,-35.156,5.859,46.387
72.754,26.855,-31.25,12.695,-2.441
76.66,21.484,-20.508,3.906,-5.859
40.039,22.461,-26.855,-0.488,41.504
40.039,25.391,-28.809,-0.488,55.664
47.852,22.949,-27.832,-2.441,-10.254
60.059,29.785,-37.109,-6.836,-39.551
78.613,32.715,-31.25,-25.879,-36.133
61.035,28.809,-18.555,-20.996,-57.617
65.918,28.809,-25.391,-3.906,-20.508
47.363,28.32,-32.227,-20.02,9.766
13.672,29.785,-28.32,-24.414,-5.371
39.551,25.391,-27.344,11.719,9.277
70.801,29.785,-31.25,12.207,7.812
64.941,34.668,-20.508,-22.461,-17.09
47.363,26.367,-16.602,-24.414,37.109
28.32,27.344,-26.367,-25.391,76.172
38.086,26.855,-20.508,0,41.504
81.055,30.762,-14.16,19.531,74.219
53.223,29.297,-12.695,-11.719,104.004
35.156,26.855,-18.066,4.395,99.609
54.688,25.391,-26.855,17.578,32.715
71.777,31.25,-23.926,7.324,-2.93
65.43,31.25,-23.926,4.395,68.359
58.594,28.809,-15.625,16.113,65.918
58.594,32.227,-18.066,18.555,-1.953
61.523,30.762,-22.461,6.836,46.875
81.543,33.203,-10.742,25.879,24.414
101.074,33.203,6.836,28.809,-29.785
83.984,35.645,6.348,23.438,4.883
43.945,35.156,-5.859,12.695,16.113
49.316,33.203,-19.531,5.371,20.508
62.988,24.902,-12.207,23.926,-20.508
82.52,28.809,5.859,2.93,-34.18
80.566,35.156,4.883,-4.395,56.152
60.547,32.715,-2.93,14.16,96.68
61.523,31.738,-4.395,-1.953,54.688
61.523,25.391,13.184,0,18.066
74.219,28.809,14.648,10.254,17.09
74.707,38.086,-1.953,13.184,3.418
44.922,38.086,-4.883,13.184,62.012
40.527,33.691,-1.953,2.93,8.301
60.547,33.203,2.441,7.324,-22.461
63.477,32.227,2.441,16.602,14.16
52.734,27.344,-1.953,6.836,23.926
42.969,27.344,8.301,13.672,30.762
35.156,29.785,10.742,10.254,19.531
46.875,31.738,9.766,-3.906,-3.418
62.988,32.715,13.672,4.395,18.555
55.664,34.18,13.184,12.695,18.066
45.41,37.109,9.277,11.23,40.039
38.086,35.645,2.93,2.93,36.621
54.688,35.645,8.301,0,25.391
72.266,35.156,15.625,5.859,28.809
56.641,32.227,17.578,0.488,45.898
47.363,30.273,8.789,-1.465,9.277
45.41,30.762,-4.395,16.602,-8.301
41.992,31.738,-5.859,2.93,45.41
59.57,34.18,-7.812,-4.395,-20.508
61.035,35.645,-12.207,14.16,-6.836
37.109,31.25,0,13.184,45.898
25.879,29.785,-3.418,1.465,-2.93
26.367,30.273,-7.812,-4.883,-32.715
43.945,24.902,0.977,3.906,50.293
53.711,28.32,6.836,11.23,85.938
35.156,32.227,10.742,1.953,43.945
22.461,31.738,7.324,0.977,61.035
31.25,32.715,5.371,0,31.25
44.434,32.227,18.066,-3.418,20.996
27.344,28.809,18.066,7.324,46.875
22.949,30.273,10.254,0.488,-5.371
27.832,37.598,10.742,-3.906,-61.523
24.902,41.504,12.695,-2.93,22.949
42.969,43.457,13.672,9.766,63.477
47.363,45.41,9.277,10.254,-35.645
27.832,46.875,8.301,-3.906,-86.914
18.066,44.922,11.719,3.418,-7.812
20.02,45.898,-1.465,-0.488,32.715
36.621,50.781,0.977,1.465,0.977
49.316,43.945,1.465,5.859,-23.926
25.879,41.992,0,4.395,-75.684
17.09,45.41,10.742,8.301,-11.719
18.555,40.527,5.859,-7.324,38.086
35.156,39.551,6.836,-25.879,11.23
47.852,42.48,14.16,-9.277,9.766
44.434,46.875,20.02,4.395,61.523
30.273,45.41,19.043,4.883,41.992
20.508,39.551,9.277,-5.859,-23.438
34.18,39.062,7.324,-9.766,-13.672
50.293,41.504,8.301,10.254,9.277
42.969,39.062,8.789,16.113,13.184
24.902,37.109,17.578,5.371,22.461
21.484,39.062,14.16,-14.648,67.383
5.859,39.551,18.555,-6.836,81.055
26.367,41.016,16.602,3.906,34.668
41.992,40.527,10.742,3.906,25.879
7.812,37.109,17.09,-9.766,44.922
8.789,40.527,4.395,-5.371,37.109
38.086,36.133,13.184,11.719,10.742
37.109,29.297,29.785,6.836,37.109
20.02,26.367,25.391,-8.789,42.969
-6.836,22.949,37.598,1.465,-27.344
-26.855,23.926,36.133,4.883,-26.367
-1.465,18.066,24.414,-20.996,10.742
30.273,18.555,25.879,-42.48,10.742
36.133,24.414,31.25,-19.531,4.395
15.625,24.414,47.363,9.766,32.227
7.324,27.832,41.992,-3.418,6.348
34.18,29.297,40.039,-25.391,14.16
41.504,32.227,48.828,-11.23,53.711
45.41,35.645,41.992,6.836,-10.742
27.344,36.133,34.668,10.742,-41.992
11.23,36.133,25.879,-2.93,-30.273
12.695,35.645,17.578,-40.527,9.766
23.926,26.855,17.09,-39.551,52.734
30.273,24.902,20.996,-1.465,5.371
39.062,24.902,27.344,20.996,27.832
48.34,24.902,30.273,3.906,69.336
20.02,21.484,15.625,-9.277,40.527
24.902,22.949,25.391,-4.883,37.598
36.133,24.902,35.645,-9.766,72.266
30.273,22.461,33.203,-7.324,77.148
41.016,24.414,36.133,1.465,62.012
26.367,26.855,31.738,-20.996,18.555
42.48,27.832,39.062,-30.273,-2.441
54.688,27.832,45.41,-5.371,8.301
27.832,25.879,44.434,12.207,58.105
27.344,28.809,22.949,18.555,23.926
18.066,31.25,22.461,13.184,-33.203
40.527,34.18,34.668,-2.441,15.137
84.961,32.227,16.602,-22.949,20.996
73.73,29.785,10.254,-27.344,41.504
46.875,32.227,19.043,-2.93,81.055
15.137,24.414,12.207,-9.277,80.078
22.461,24.414,8.301,-11.719,66.895
39.062,19.043,13.184,21.484,1.953
22.949,21.973,15.137,15.625,9.277
8.301,29.785,15.137,-9.277,30.273
46.387,25.391,8.789,-11.719,15.137
58.105,25.879,9.277,0,11.719
47.363,24.414,16.602,11.23,40.527
75.195,25.391,15.625,12.207,59.57
73.242,28.32,22.461,-15.625,35.156
24.902,22.461,25.879,-12.695,72.754
35.645,24.902,25.879,15.137,79.59
77.148,28.32,30.273,6.836,37.598
31.738,20.02,41.992,20.02,27.832
32.227,20.996,39.551,5.859,12.207
83.496,25.879,23.926,-14.648,-24.414
61.035,23.438,30.273,0.488,-10.742
45.898,20.996,39.551,-0.488,8.789
44.434,25.391,39.551,3.418,3.906
25.879,26.855,30.762,14.16,0.977
41.504,29.785,24.414,-3.906,57.617
34.668,27.832,31.738,-1.465,60.059
42.969,24.902,38.086,-0.977,-34.18
76.172,30.762,45.898,-6.348,-27.832
42.969,33.203,50.293,12.695,24.414
-8.301,27.832,44.434,7.812,38.086
0.977,26.367,33.691,-12.207,19.043
43.945,34.668,41.992,-8.301,69.824
66.406,41.016,43.457,-10.742,146.484
47.363,39.551,37.109,-22.461,99.609
25.391,34.18,41.992,-19.043,16.113
-4.395,28.32,42.969,-16.113,-9.277
5.371,32.715,54.688,-16.602,87.402
31.25,34.668,39.062,-15.625,99.609
39.551,37.598,26.367,-18.066,51.27
69.824,42.969,22.461,-28.32,-0.977
15.137,30.762,21.484,-13.184,18.555
-10.742,23.926,35.156,12.207,59.57
57.129,30.762,31.738,-14.648,7.324
61.523,29.297,31.25,-16.113,-0.977
26.855,24.414,47.363,5.371,-11.23
31.738,29.297,46.387,-11.719,2.93
23.926,26.367,44.434,-0.977,-0.977
55.176,24.902,47.363,9.277,3.906
37.109,26.367,46.387,8.301,38.574
-7.324,21.484,54.199,12.695,7.812
26.367,24.414,45.898,-7.324,-61.035
64.941,30.273,55.664,-27.832,-54.199
59.082,34.18,59.57,-6.348,41.016
-12.695,28.32,52.246,10.254,83.008
-5.371,22.949,39.062,-13.184,26.367
52.734,35.645,23.926,-18.066,32.227
18.555,30.762,39.062,-6.836,68.848
19.531,26.367,48.34,0.488,22.949
52.246,26.367,49.316,6.348,-5.371
7.812,20.508,57.617,18.066,-8.789
-15.137,28.32,44.922,-3.906,-25.879
24.414,39.062,35.156,-28.32,80.078
61.035,36.621,33.203,1.465,85.449
49.805,31.738,33.203,40.039,12.207
20.508,32.227,35.645,25.879,41.504
31.25,28.809,18.555,14.16,96.191
52.734,24.902,15.137,11.719,70.312
70.312,30.273,30.273,-5.371,19.531
35.156,31.25,35.156,8.301,21.973
24.902,30.273,35.156,30.762,6.836
28.32,26.855,26.855,26.855,-10.742
14.16,26.855,20.02,11.719,34.668
62.012,31.25,23.926,11.23,28.809
83.008,27.832,20.508,18.555,-32.715
47.363,28.809,19.043,11.23,16.113
34.668,30.762,18.555,14.16,18.555
25.879,26.855,16.113,24.414,34.18
38.086,29.785,24.414,7.812,79.102
58.594,33.691,38.574,5.371,45.41
45.898,34.668,36.133,15.625,1.953
32.715,36.133,24.902,4.395,-14.648
20.02,35.645,17.09,2.93,-37.109
16.602,31.25,22.461,11.23,-37.598
48.828,31.738,30.762,16.602,18.066
72.754,39.062,27.832,9.766,37.109
16.602,35.156,27.832,2.441,37.109
9.766,29.785,24.902,0.977,72.266
26.855,28.32,23.438,-4.883,33.203
39.062,23.438,26.855,2.441,-29.297
45.898,28.809,28.809,2.93,-35.645
28.809,35.645,30.762,-3.418,8.789
23.926,32.715,19.043,-4.395,48.828
31.738,22.461,24.902,-2.441,4.395
56.152,26.855,21.484,-6.348,-15.137
38.086,29.297,8.789,-17.09,-4.395
12.207,30.273,18.555,-6.836,8.301
28.32,34.18,18.555,12.207,4.883
28.32,34.18,16.113,5.371,-15.625
35.156,32.715,21.973,2.441,-13.672
20.996,30.273,32.227,13.672,0.488
6.836,32.715,37.109,3.418,51.758
24.902,34.668,15.625,-17.578,32.227
28.32,35.156,18.555,-12.207,10.254
38.574,35.645,34.668,12.207,40.039
39.551,32.715,34.18,5.859,54.688
30.762,32.227,30.762,-3.418,23.438
31.738,35.645,29.297,7.324,44.922
25.879,36.621,31.25,2.441,53.223
31.738,37.109,37.109,-4.883,36.621
41.992,38.574,20.996,-9.766,-5.859
31.25,43.945,22.949,-10.254,6.348
32.715,46.875,16.602,-5.859,24.414
20.02,43.457,14.16,-10.254,42.48
22.949,45.41,35.156,-3.418,91.309
40.527,42.969,38.086,0.977,64.453
25.391,37.598,30.273,-2.441,62.012
23.926,41.016,11.719,-14.648,34.18
26.855,40.527,3.906,-21.973,1.953
32.715,35.645,16.113,-5.859,-7.324
44.434,37.598,27.832,-4.395,-36.133
37.109,41.016,34.668,-8.301,-6.836
20.508,38.086,34.18,-10.254,2.441
13.184,31.738,17.578,-19.043,-14.648
27.344,32.227,18.066,-9.766,-50.781
41.016,31.738,22.949,1.953,30.762
35.645,27.832,24.902,-1.465,84.961
29.297,27.344,22.461,-3.418,-3.906
27.344,25.391,11.719,-7.324,-2.441
28.809,25.879,24.902,-10.254,34.18
33.203,34.668,35.156,-17.578,21.973
25.879,35.645,28.809,-9.766,21.973
-2.441,23.438,43.457,-16.602,8.789
-2.93,22.461,41.992,-40.039,10.742
-0.977,37.109,23.438,-36.621,-6.836
27.832,39.062,32.715,-13.672,2.93
45.41,25.879,49.805,1.953,57.617
30.273,30.273,51.27,9.277,42.969
29.785,37.598,27.344,-5.371,43.457
29.297,36.133,12.695,-16.113,41.016
22.949,21.973,38.574,-22.461,18.555
0.977,10.742,68.848,-28.32,32.227
25.391,23.438,20.996,9.766,7.324
41.016,26.367,-3.418,23.438,-17.578
25.879,26.367,1.465,10.742,94.238
47.363,30.762,0.488,12.695,84.473
51.758,27.832,7.812,21.973,-7.324
14.16,30.273,20.996,-10.742,-17.09
-24.902,57.129,32.715,-56.152,-29.297
-19.531,42.969,34.668,-34.668,30.762
30.762,3.418,51.758,-26.855,7.324
56.152,17.09,26.855,-4.883,-7.812
24.902,50.781,27.344,1.465,-18.066
-0.488,40.527,46.387,-24.414,-40.527
42.969,26.855,5.371,-45.41,-4.883
78.125,27.344,8.789,-5.371,-28.809
58.105,20.996,15.137,39.551,45.41
65.43,22.949,2.93,26.367,75.195
76.66,29.785,-4.883,38.086,38.574
44.922,41.504,-19.531,12.695,47.852
31.738,13.672,36.621,-10.742,-2.441
55.664,12.695,61.523,-10.254,94.727
79.59,24.414,-7.324,31.738,86.426
65.43,25.879,-8.789,35.156,-25.391
54.688,32.715,-20.996,3.418,-13.184
47.852,28.809,-11.23,-0.488,49.805
-41.016,61.523,22.461,-48.34,42.48
-49.805,46.387,37.109,-54.688,13.672
52.246,-6.348,33.691,8.789,56.641
94.238,12.695,-24.414,41.992,23.438
108.398,32.227,-36.621,47.363,25.879
100.098,30.273,-8.301,52.734,50.293
72.266,28.809,-5.859,46.387,42.48
68.359,22.949,-13.672,38.086,54.688
59.082,29.785,-31.25,33.203,41.016
46.875,39.551,15.625,-17.09,0.488
80.566,28.809,20.02,4.395,17.578
62.5,29.297,-8.301,33.203,3.418
11.719,30.273,-4.883,-6.836,1.465
44.434,26.855,-31.25,21.484,6.348
71.777,30.273,-7.812,34.18,27.832
82.031,30.273,8.301,38.574,50.293
80.566,27.344,-4.395,34.18,9.766
60.547,33.691,11.719,18.555,-0.488
39.062,30.762,32.715,13.184,4.883
31.25,22.949,42.969,-15.625,15.137
31.738,25.879,67.383,-52.734,1.465
19.043,25.879,65.918,-32.715,29.785
25.879,67.871,-0.488,5.859,56.152
29.297,83.008,-9.277,12.207,-30.273
46.875,29.785,32.227,-11.719,-37.598
95.215,44.434,23.926,27.344,-13.184
66.895,46.387,55.664,20.508,1.465
21.973,24.414,114.746,-42.48,72.754
35.645,47.852,47.363,-11.23,25.879
49.805,57.129,15.625,-2.93,-32.227
57.617,42.48,46.387,15.137,70.801
75.684,44.922,37.598,31.738,46.387
68.359,54.199,20.508,18.555,-26.367
13.672,51.27,1.465,-13.672,35.645
-5.371,52.246,4.883,-23.438,69.824
74.219,40.039,0,25.391,69.824
51.758,14.648,60.547,-0.488,67.383
27.344,39.551,42.48,-19.043,60.547
74.707,49.316,-27.832,13.672,39.062
47.852,23.926,6.836,-2.441,21.484
32.227,37.109,21.973,-29.297,-17.578
83.496,30.762,0.488,19.531,-19.043
85.449,29.785,2.441,37.109,-18.555
45.41,42.969,9.766,1.953,-33.203
37.109,33.691,-1.953,-7.324,30.273
57.617,29.785,8.789,6.836,20.996
71.289,28.32,11.719,11.719,-37.109
59.082,26.367,12.695,8.301,-20.508
43.945,27.344,34.668,0.488,-2.441
24.902,19.531,29.297,-15.625,27.344
31.25,26.367,19.043,-24.414,-41.992
49.316,32.715,28.32,-15.625,-86.914
49.316,40.039,28.32,1.465,11.23
48.34,33.203,65.43,-1.953,44.922
42.969,28.809,57.129,2.441,1.953
55.664,31.738,41.992,9.277,41.504
69.824,30.273,52.734,-2.441,51.27
53.711,29.785,47.852,-4.883,11.719
34.668,30.273,38.086,-9.277,-9.766
31.25,30.762,20.02,-12.695,6.348
40.039,27.832,23.438,-13.184,35.156
51.758,29.785,24.902,-10.254,15.137
53.223,28.809,31.738,-3.906,-34.18
34.668,25.879,39.551,-6.348,35.645
29.297,19.531,20.02,-6.836,43.457
41.016,17.09,27.832,-17.09,-4.395
44.922,22.949,40.527,-15.625,16.113
54.688,23.438,42.969,0,28.809
44.922,23.926,54.199,-8.301,22.949
8.789,24.902,40.527,-24.414,35.645
14.648,26.367,23.438,-34.668,45.41
54.199,29.785,27.344,-16.113,26.367
59.082,29.785,36.133,10.742,36.133
38.574,26.855,34.668,11.719,37.109
29.785,27.832,20.508,-2.93,14.16
30.273,25.391,21.484,-7.324,37.598
41.016,22.461,30.273,-4.395,58.105
47.363,22.461,16.602,-2.93,50.781
31.25,22.949,23.438,-9.277,21.484
23.438,25.391,38.086,-12.207,26.855
19.531,23.438,31.738,-17.578,50.293
29.785,25.391,33.691,-12.695,21.484
40.039,28.32,45.41,4.395,41.992
27.832,27.832,43.457,9.277,73.242
16.602,25.879,32.715,-2.93,73.73
27.344,25.879,21.484,-13.672,34.18
29.297,28.809,31.738,-6.348,-12.207
32.227,34.18,47.852,-2.441,-26.855
45.898,41.016,47.363,5.859,-28.32
30.273,40.527,40.039,11.719,31.738
21.973,35.645,26.855,1.953,6.348
40.039,35.645,37.598,0,-35.156
51.758,36.133,39.062,5.859,3.906
38.086,33.203,37.109,6.348,16.113
26.855,33.203,42.969,1.465,22.949
28.32,37.598,23.926,-3.906,29.297
35.645,36.621,21.973,-3.418,49.805
38.574,26.367,25.391,3.418,13.184
32.227,26.855,23.926,7.324,32.715
19.531,32.227,34.18,4.395,88.867
17.578,34.18,28.809,0.488,45.41
28.809,40.039,30.762,-17.578,56.152
41.992,37.598,35.156,-14.648,83.008
40.527,35.156,35.645,1.953,75.195
14.648,35.645,43.457,5.371,67.383
0,33.203,34.668,-3.906,-24.414
12.695,34.18,42.969,-17.09,-49.316
32.715,38.574,57.129,-13.672,30.762
37.109,40.039,51.27,-4.883,50.293
22.461,41.016,31.25,-6.348,-22.949
13.184,38.086,24.902,-8.301,-55.176
14.648,39.062,36.133,-7.324,6.348
26.367,42.969,41.504,-5.371,42.969
36.621,41.016,42.48,0,29.785
25.879,38.086,49.805,-1.953,-3.418
17.578,38.086,50.293,-15.625,16.113
21.484,33.691,41.992,-18.066,41.992
38.086,26.855,40.527,-8.301,2.93
41.016,25.879,36.133,-5.859,43.457
29.297,31.25,49.805,-4.395,93.75
24.414,32.227,57.129,-1.465,28.32
21.973,31.25,48.34,-8.301,-48.828
35.156,33.203,69.824,-11.23,-68.848
44.434,34.18,82.52,-2.93,-28.809
27.832,40.527,84.961,1.953,-17.578
9.277,44.434,90.82,-2.441,46.875
10.254,42.48,70.801,-9.277,5.371
28.32,39.062,64.453,-5.371,4.883
35.156,35.156,72.266,1.465,58.105
26.855,38.086,66.406,2.441,12.695
18.066,38.086,55.176,-0.488,-24.902
1.465,35.645,50.781,-8.301,-8.301
3.418,38.574,57.617,-10.742,51.758
13.184,39.551,66.895,-4.395,56.152
0,37.109,78.125,1.465,51.758
-17.09,32.715,78.125,7.324,62.5
-28.32,28.32,57.617,-1.953,14.16
-20.996,29.785,55.664,-14.16,20.508
-8.301,24.902,61.035,-8.789,51.27
-15.137,24.902,65.43,-3.418,9.766
-30.762,31.25,67.871,-7.812,-25.391
-41.504,30.273,61.035,-8.301,18.555
-36.621,31.738,66.406,-9.277,16.113
-17.578,28.809,62.988,-5.859,-9.277
-15.625,24.414,53.223,-1.953,22.949
-33.203,26.855,52.734,-3.418,41.992
-40.527,25.879,54.199,-4.883,48.828
-32.715,23.926,58.594,-8.789,-5.859
-16.113,22.949,62.988,-3.418,20.02
-20.02,20.02,62.988,3.418,55.664
-24.902,20.996,65.918,0.977,6.348
-24.902,18.066,58.594,-7.324,10.742
-20.996,18.555,46.875,-9.277,13.184
-9.277,20.996,44.922,1.953,2.441
5.859,22.461,50.781,0.977,52.246
4.883,22.949,50.293,0,31.738
-6.836,20.02,37.598,-6.836,6.836
-4.883,15.625,25.879,-16.602,-36.621
11.23,13.184,32.227,-7.812,-44.922
20.02,19.043,37.598,-6.348,38.086
6.836,20.02,40.039,-8.789,33.691
-1.465,17.578,40.039,-8.301,43.945
3.906,18.555,32.715,-17.578,86.426
20.02,17.09,36.133,-11.719,20.02
36.621,21.484,44.922,1.953,5.859
28.809,21.484,34.668,4.395,42.48
18.066,17.578,15.137,-4.395,93.262
18.066,16.113,2.93,-9.766,64.453
33.203,16.113,10.742,-9.766,-41.016
43.945,13.184,19.531,-5.371,-2.441
27.344,14.648,26.367,3.906,11.719
16.113,21.484,36.133,2.93,34.18
18.555,22.949,29.297,0,74.707
32.227,23.438,35.156,0,45.41
48.828,25.391,42.48,1.465,-10.254
42.48,25.879,49.805,6.348,86.914
28.809,25.391,43.457,6.348,109.375
27.344,28.809,27.344,-0.977,12.695
41.016,31.25,34.668,-6.836,4.883
53.711,30.273,55.176,1.465,-6.348
44.922,31.738,67.383,7.812,5.859
32.715,29.297,66.406,0.488,27.832
27.344,28.32,54.199,-9.766,29.785
33.203,28.32,56.152,-6.348,-15.137
49.316,29.297,62.012,-3.906,29.785
54.199,32.227,60.547,-7.324,52.246
46.875,30.762,59.57,-2.441,-43.457
40.039,28.32,51.27,4.395,-11.23
42.969,26.855,44.922,0.977,-13.672
60.059,25.879,52.734,2.441,-47.363
54.199,28.809,65.43,10.254,-5.859
37.109,28.32,63.477,10.742,9.766
39.551,25.391,50.293,9.766,-11.23
41.504,23.926,42.969,6.836,31.738
54.688,22.461,49.316,11.719,40.039
57.129,22.461,58.594,16.602,32.715
45.41,21.484,55.176,15.137,23.438
44.434,24.414,44.922,10.254,-3.418
48.34,27.344,42.48,4.395,-17.09
59.082,26.855,41.992,12.207,9.277
60.059,24.414,37.109,18.555,2.93
49.316,21.973,42.969,13.184,-36.133
35.645,21.484,41.504,1.953,-18.555
26.367,15.137,28.809,-6.836,10.742
40.527,17.09,24.414,-2.93,-24.414
50.781,24.902,24.902,0.977,-8.789
42.969,25.391,20.02,9.766,-12.207
37.109,21.973,6.348,8.789,-1.953
39.062,22.461,3.418,-0.977,36.621
50.781,22.949,8.789,-3.906,44.434
61.523,21.484,-3.418,0.488,24.414
49.316,26.855,-12.695,0.977,-34.668
28.809,24.902,-10.254,-7.812,-13.672
20.996,24.902,-18.066,-13.184,51.27
39.062,24.902,-12.695,-11.719,6.836
60.059,22.949,9.277,-1.953,-22.461
52.734,30.762,14.648,7.324,24.902
40.527,35.645,-3.418,9.766,7.324
38.086,35.645,-12.695,-0.488,-15.625
46.387,35.156,-0.977,-9.766,53.711
63.477,31.25,9.766,0.977,78.613
62.988,31.738,15.137,12.695,20.508
43.945,30.273,17.578,9.766,50.293
30.762,27.344,-6.836,1.953,66.895
39.551,28.809,-16.602,-3.418,30.762
62.988,28.32,-5.371,11.719,28.32
49.316,28.32,0.488,18.066,-11.23
25.391,24.414,1.465,4.883,-6.348
22.461,24.414,0.977,-2.441,6.348
25.879,25.879,3.418,-13.184,-62.012
46.387,27.344,21.973,-4.395,0.977
57.617,28.32,30.273,14.16,49.805
43.945,21.973,22.949,12.207,-4.395
38.574,20.508,13.184,7.324,-11.719
41.504,21.973,9.766,10.742,-1.953
53.711,19.043,13.672,15.625,38.574
64.453,19.043,3.418,13.672,31.738
43.457,20.996,0.488,4.883,25.879
33.203,21.484,2.441,10.254,72.266
34.668,24.902,-8.789,-2.441,28.809
45.898,35.645,-9.277,-2.441,-44.922
36.621,32.715,-10.254,15.137,-18.555
40.039,28.32,-12.207,16.602,12.207
50.293,35.645,-13.184,18.066,29.297
40.039,33.203,-16.602,10.254,7.324
44.434,37.109,0.977,3.418,53.223
57.129,28.32,-2.441,8.301,66.895
60.547,31.738,-6.836,15.137,59.57
29.297,27.832,14.16,3.418,72.754
5.371,15.137,10.254,-6.836,41.504
41.016,26.855,2.441,4.395,32.715
60.059,31.25,15.137,9.766,25.879
51.758,24.902,14.648,10.742,54.199
41.992,26.855,-11.23,5.371,0.977
41.992,17.09,-8.301,4.395,-16.602
42.48,11.719,7.324,-1.465,-12.695
41.992,29.297,6.348,-3.418,-36.133
47.852,30.762,22.949,17.09,-40.039
31.738,20.508,30.273,10.254,-22.949
6.836,19.531,24.414,-23.926,-46.387
27.344,35.156,30.762,-13.184,-7.812
64.941,31.738,15.137,18.555,14.648
56.641,28.32,16.602,19.531,7.812
41.016,34.18,26.367,11.719,53.223
33.691,30.762,8.301,6.836,57.617
32.715,25.879,12.695,0,32.227
43.945,10.254,32.715,5.371,27.344
42.48,16.113,25.391,14.648,25.879
30.273,36.133,15.137,0.488,-45.41
18.066,34.18,19.531,-5.859,-49.316
24.414,33.691,26.367,0,-10.742
58.105,39.551,26.855,5.371,48.828
57.617,40.527,21.484,19.531,49.805
38.086,36.621,4.883,8.789,8.789
29.785,33.691,-7.812,3.418,33.691
33.691,30.273,2.441,1.953,74.707
55.176,29.297,2.441,4.395,15.625
56.641,31.25,3.418,11.719,14.648
43.945,32.227,11.719,15.137,104.004
32.227,38.086,5.859,0.977,62.5
30.762,35.156,8.301,-13.184,-12.695
57.129,30.762,8.789,0.977,22.461
70.801,22.461,13.184,22.949,58.105
45.898,28.32,20.02,25.879,55.664
25.391,39.062,17.09,4.883,59.57
30.762,31.738,17.578,1.465,29.297
48.828,26.367,27.832,12.695,26.367
67.383,27.344,33.203,16.113,27.832
49.805,30.273,30.762,12.207,53.223
27.344,23.926,28.809,2.441,46.387
27.344,23.926,30.273,-1.953,-31.25
50.293,30.273,31.25,-3.418,-2.93
62.988,25.391,13.184,2.441,45.898
49.316,20.996,5.859,13.672,14.648
45.41,26.855,5.371,13.184,4.395
38.574,25.879,1.465,1.953,-17.09
46.387,27.832,10.254,6.836,23.926
56.152,29.297,15.137,10.742,6.836
44.434,22.949,20.508,6.348,25.391
34.668,29.785,10.742,3.906,59.57
28.809,28.809,-6.348,-2.441,12.695
33.691,22.461,8.789,-7.812,13.184
46.387,22.461,9.277,0.977,-8.789
35.156,23.438,0.488,5.859,47.363
30.762,24.902,11.719,5.371,74.707
25.391,15.625,6.348,-0.488,11.719
29.297,11.23,17.09,-7.324,41.016
45.898,20.996,27.832,0.488,80.078
44.434,25.391,31.25,14.16,32.227
30.762,19.531,38.086,11.23,35.645
8.301,21.484,34.668,-4.395,83.984
37.598,25.879,35.156,-2.441,55.176
56.641,31.25,37.109,3.418,28.809
41.016,33.203,30.762,10.254,51.27
38.086,26.367,27.344,8.301,64.941
30.762,24.902,20.996,-7.324,36.621
30.762,24.414,20.996,-13.672,53.223
45.898,21.484,23.438,-7.324,102.051
42.48,21.484,20.508,3.906,69.824
30.762,27.832,18.066,2.93,51.27
36.133,30.273,-1.953,2.441,32.227
36.133,26.367,-2.441,-6.348,58.594
41.992,23.438,6.836,-6.836,80.078
54.199,25.879,4.395,17.09,45.898
38.086,25.391,2.441,16.602,75.195
27.344,26.367,-7.324,-0.488,70.801
30.762,26.855,1.953,-2.93,71.289
35.156,25.879,27.344,-9.766,25.391
48.34,43.457,18.555,-8.301,-27.344
38.574,36.133,26.367,0,20.02
28.32,26.367,26.855,-14.16,53.223
33.691,32.227,15.137,-5.859,57.617
38.574,32.715,38.086,0.488,-3.418
54.199,30.762,43.945,0.977,16.113
42.969,29.785,38.574,0,38.574
26.855,24.902,37.109,-1.465,3.906
25.879,27.832,36.133,-2.441,-8.301
34.18,37.109,43.945,-8.301,-59.57
42.969,31.25,45.898,2.441,-71.777
28.32,38.574,41.992,1.465,-11.23
17.578,34.18,48.34,-1.953,-16.602
31.738,25.879,33.203,-3.906,-49.316
43.457,29.785,37.598,-2.93,-4.883
44.434,31.738,54.199,4.395,35.156
46.875,34.18,50.293,3.906,19.043
38.574,34.668,38.574,0.977,-20.996
16.113,32.227,39.062,-19.043,-34.668
24.902,35.156,35.645,-11.719,-77.148
50.781,34.668,23.438,5.371,11.23
34.18,37.109,14.16,3.906,15.137
27.344,36.621,27.832,1.465,-28.32
40.527,33.691,35.156,-12.207,34.18
28.809,37.598,45.898,-23.438,37.109
37.598,32.715,49.316,-6.348,48.34
44.922,30.762,38.086,-4.395,86.426
21.484,41.016,49.316,-10.254,26.855
21.973,45.898,33.691,-0.488,13.184
34.668,44.922,20.508,-14.16,23.438
51.27,37.109,25.879,-4.395,-19.043
52.246,37.598,32.227,7.812,-8.301
32.715,35.645,37.109,-7.324,19.531
29.785,34.668,19.043,-10.742,21.973
30.762,34.18,2.441,-8.789,-43.945
43.457,35.645,4.883,-6.836,-54.688
53.223,41.504,19.043,-4.883,10.254
42.969,41.504,36.133,-10.254,-49.805
26.855,41.504,34.668,-10.254,-42.48
27.344,40.039,18.066,-6.348,32.227
35.645,36.133,19.531,-5.371,-18.555
47.363,37.109,32.715,0.488,-48.34
45.41,40.527,29.297,-4.395,3.906
17.09,39.551,29.297,-13.672,54.199
28.32,38.574,24.902,-7.812,91.309
48.34,39.062,26.855,-9.766,48.34
47.363,25.391,38.086,6.348,0
41.504,30.762,37.109,5.859,28.32
7.812,40.527,23.926,-20.02,48.34
1.953,41.016,6.836,-29.297,60.059
31.738,41.504,25.391,-13.672,62.012
35.156,38.086,20.996,2.93,35.645
20.508,31.25,12.207,1.953,37.109
26.855,25.391,34.18,-0.488,83.496
25.879,27.832,30.762,-10.254,159.18
26.855,25.879,31.738,-12.207,89.844
44.922,18.555,44.434,-0.977,-10.742
24.414,20.996,37.109,-13.672,-20.508
18.066,33.203,27.832,-15.137,33.203
30.273,23.438,31.25,5.859,76.66
19.531,25.391,29.297,-9.277,60.547
44.434,29.297,31.738,-2.93,44.922
44.434,26.855,50.293,8.301,-23.438
13.672,31.25,37.109,6.836,-28.809
20.996,27.344,25.391,1.953,-6.348
29.785,28.32,37.109,-1.465,-53.711
54.199,27.832,34.668,3.418,-57.617
44.434,24.414,36.133,12.695,-21.973
30.762,26.367,45.41,18.066,40.527
39.551,28.32,26.855,16.113,51.27
39.551,23.438,32.227,9.277,19.531
35.645,24.902,50.781,-0.488,53.223
44.434,29.297,34.18,19.043,66.406
41.992,30.762,34.668,20.996,54.199
27.344,21.973,34.18,1.953,50.781
46.875,32.715,13.184,1.953,35.645
46.875,34.668,21.484,0.488,40.039
41.504,25.391,24.414,3.906,11.719
21.484,23.438,29.785,9.277,26.367
0.977,20.508,16.113,-8.789,26.855
31.738,24.414,6.348,-20.508,0
44.922,34.668,24.902,0.488,25.879
45.898,40.039,20.508,21.484,27.832
52.246,30.273,3.418,27.344,6.836
33.203,23.438,0,14.648,30.273
20.02,24.414,-6.348,4.395,-1.953
45.41,23.438,-20.508,9.277,-19.043
35.156,24.414,-22.949,5.859,15.625
14.16,29.785,-7.324,4.883,23.926
40.039,20.996,9.277,17.578,37.109
39.551,22.461,0.977,5.371,16.602
41.504,28.32,6.348,-1.953,-23.438
52.734,25.391,23.438,12.695,20.02
41.992,25.879,16.113,16.113,37.109
37.109,27.832,3.906,8.301,-18.066
41.992,20.508,6.836,11.719,15.137
36.621,33.691,10.742,0.977,45.898
49.805,32.227,7.324,9.277,45.41
41.992,20.02,13.184,4.395,76.66
24.902,23.438,32.227,-15.625,94.238
11.23,10.742,21.973,-6.348,62.5
25.879,11.23,16.602,0,24.414
64.941,14.16,19.531,18.555,45.898
39.062,14.16,27.344,0.977,58.594
28.32,18.066,13.184,-10.254,20.02
13.672,3.906,17.09,-8.789,24.902
12.207,5.371,41.504,-9.766,-0.488
38.574,27.344,32.715,3.418,23.438
21.973,24.414,36.133,-6.836,19.043
13.184,13.184,38.086,3.906,-19.531
33.691,20.508,30.273,21.484,11.23
60.059,24.414,39.551,23.438,64.453
47.363,33.203,33.203,10.254,58.105
53.223,19.531,29.785,22.461,34.18
56.641,24.902,26.367,24.414,66.895
13.672,43.457,15.625,-3.418,40.039
14.648,34.668,13.184,-6.348,53.223
48.34,29.785,17.09,12.695,51.758
52.734,23.926,19.531,17.09,34.668
29.297,31.25,16.113,6.836,6.836
8.789,31.738,25.391,-8.789,35.645
4.395,20.996,28.32,-22.949,71.289
40.039,40.039,28.32,-8.789,46.875
38.574,32.715,37.598,-0.977,41.016
24.902,31.738,24.902,3.418,-10.254
34.18,27.832,23.438,5.859,-1.465
27.344,26.367,19.043,-6.836,-17.578
46.387,30.762,23.926,1.465,-22.461
51.758,17.578,43.457,6.348,1.953
38.574,30.762,25.391,-5.859,-43.457
26.367,29.297,-2.93,-0.488,-9.766
31.25,12.695,8.301,7.324,-24.902
34.18,18.555,38.086,-9.277,17.578
23.438,31.25,21.973,-15.137,58.594
33.203,42.969,11.23,-1.465,-5.371
37.598,34.668,26.367,-2.93,13.672
18.555,22.461,13.184,-26.855,-8.301
28.32,20.996,23.926,-20.996,5.371
54.688,24.414,25.879,0.977,41.016
53.711,29.785,6.348,3.906,38.574
46.875,24.414,5.859,5.371,49.316
34.18,24.902,2.93,-8.301,-32.715
35.645,24.414,36.621,-20.996,-32.227
56.641,25.391,39.062,-6.348,107.422
54.688,24.902,28.32,7.324,126.953
33.203,31.738,41.992,1.953,77.148
16.113,36.133,34.18,-17.578,72.754
27.832,25.391,20.508,-3.418,44.434
51.27,32.227,29.785,10.742,-19.531
48.828,37.598,48.828,3.906,-11.23
30.762,29.785,47.363,-11.719,-37.109
25.391,29.297,36.133,-20.996,3.418
37.109,30.273,36.621,-8.301,40.527
29.785,17.578,49.805,-23.926,-42.969
24.902,20.508,38.086,-19.531,12.207
51.758,40.527,11.23,15.625,65.918
31.25,32.227,10.254,-5.371,9.766
14.16,26.367,9.277,-22.461,-34.18
32.715,30.762,-5.859,-7.812,-24.414
47.852,29.785,15.137,0.977,49.805
46.387,25.391,25.879,-2.93,47.852
22.949,20.508,21.484,-20.996,25.879
5.371,37.109,17.578,-29.785,-6.348
44.434,39.062,17.09,-4.395,-41.992
62.012,0.488,45.41,-3.906,23.926
20.996,29.297,2.93,-12.695,40.527
41.504,34.18,-19.043,14.16,61.035
11.719,32.227,20.02,-24.902,91.309
12.695,48.828,8.789,-44.922,9.766
57.617,21.484,10.254,9.277,-2.441
18.555,28.809,18.066,0,-20.508
34.18,30.762,-19.531,-11.23,-112.305
27.344,24.414,-23.438,-23.926,-54.199
6.348,23.438,12.695,-45.41,-37.598
28.809,56.152,2.441,-34.668,-10.742
34.18,42.48,-4.395,-1.465,50.293
20.02,-1.953,34.668,-10.254,82.52
0.977,37.109,29.785,-31.738,79.59
5.859,64.941,-14.648,-27.344,37.109
36.133,11.23,4.395,-2.93,23.438
47.363,6.836,21.484,21.484,67.871
53.223,37.109,7.812,11.719,45.41
22.461,31.25,29.785,-35.156,-12.695
34.668,12.207,9.277,-22.949,-20.02
64.941,23.926,-8.301,19.531,59.082
52.246,37.109,-13.184,36.133,110.84
21.973,15.137,23.926,-5.859,86.914
-1.465,13.672,29.785,-28.809,71.289
49.316,29.785,6.348,14.648,70.801
81.055,13.672,18.555,24.414,59.082
54.688,23.926,26.855,1.465,-10.254
47.363,27.344,48.34,6.836,-54.199
60.059,29.785,-0.488,22.949,22.949
43.457,35.645,11.719,-0.488,16.602
45.898,34.668,34.18,-9.766,0.977
58.105,68.848,7.324,10.742,62.988
21.973,49.805,34.668,0,40.039
28.809,3.418,43.457,-26.855,-19.531
69.824,10.254,11.719,-5.371,-79.102
70.312,26.367,38.086,15.137,-10.254
40.039,27.832,55.664,0.977,3.418
11.23,31.25,11.719,-14.648,-8.789
41.504,23.438,18.555,4.883,-24.414
62.5,35.645,35.645,18.066,-47.852
41.992,36.621,28.32,-8.789,28.32
37.109,18.066,28.809,-20.02,-26.855
45.898,27.832,31.738,18.555,-93.75
29.785,33.691,41.016,14.648,0
37.598,17.09,42.969,-23.926,55.664
60.547,23.926,31.25,-8.301,52.734
46.875,28.32,21.484,19.043,33.203
16.113,77.637,3.906,9.766,50.781
4.883,67.871,-2.93,-5.371,55.664
48.828,15.137,6.836,-0.488,44.922
62.988,25.879,13.672,4.395,48.828
19.531,27.344,37.109,-40.039,47.363
-7.812,29.785,11.23,-6.836,12.695
30.762,29.297,8.301,24.414,17.09
63.965,46.387,-0.488,-3.906,96.191
52.734,21.484,-6.348,-11.23,74.219
11.719,42.969,6.836,-37.109,32.227
14.648,63.477,1.953,7.812,68.359
20.996,-12.207,38.574,-4.395,44.922
5.859,23.438,18.555,-18.066,46.387
4.395,72.266,-3.906,-17.09,76.172
25.391,15.625,16.602,-9.766,5.859
62.988,-1.465,10.742,30.273,7.812
0,36.133,23.438,-4.883,39.551
-7.324,24.414,44.434,-23.926,-24.414
51.758,16.113,28.809,5.859,46.387
89.355,24.414,-8.789,55.664,85.449
61.035,34.18,6.836,37.598,-5.859
2.441,42.969,43.457,-50.293,-11.23
-46.387,33.203,20.508,-89.844,-3.906
0.488,29.785,-32.227,25.879,3.906
65.43,17.578,24.902,29.297,15.137
-12.207,41.504,24.414,-42.969,7.324
-7.324,26.855,-14.16,12.695,8.789
61.523,-3.418,-7.324,37.109,20.02
40.039,25.879,-27.832,38.574,-9.277
51.758,47.852,-9.277,3.418,-30.762
42.48,8.789,9.766,-34.668,-10.254
12.207,9.766,-36.133,7.812,25.391
74.707,3.906,-29.297,56.641,24.902
23.438,46.875,-10.254,-8.301,-20.02
-68.848,64.453,-35.645,-51.27,-18.555
29.785,11.719,-35.645,34.668,35.645
115.234,-10.742,2.93,72.266,49.316
79.59,-19.043,11.23,22.461,-7.812
27.344,13.184,-25.391,-5.371,26.367
6.836,46.875,-38.574,-4.883,17.09
62.012,17.09,-23.926,18.555,-10.254
70.801,-27.344,31.738,33.203,34.18
21.973,0.488,32.227,14.648,63.965
44.434,31.25,-31.25,33.203,21.484
71.777,17.09,-17.578,8.789,33.203
35.645,15.625,9.766,0,72.266
25.391,19.043,-9.766,0.488,11.23
67.871,15.625,-36.133,36.133,-14.648
35.156,-21.484,-10.254,28.809,23.926
-27.344,-2.441,41.016,-63.965,19.531
20.996,21.484,47.852,-48.828,14.648
61.035,32.227,-34.18,46.875,17.578
41.016,12.207,-30.273,38.574,45.41
74.707,17.09,-17.09,6.836,95.703
47.363,2.441,7.324,-8.789,88.379
34.668,6.836,-1.953,-12.695,69.824
31.25,16.113,-18.555,16.113,2.441
35.645,-4.883,15.137,-27.832,-13.672
32.715,35.156,-18.066,-32.715,-14.16
40.527,21.973,-7.324,24.414,-37.598
19.531,33.691,24.902,-15.625,26.367
29.297,26.855,3.418,-14.16,-6.348
87.402,2.441,-11.719,0.977,-51.758
-12.207,42.969,-12.695,-53.223,3.418
-8.301,-7.324,30.762,-57.617,41.504
79.59,14.16,2.441,26.855,47.852
87.402,37.598,-26.367,76.66,20.02
20.02,6.348,2.441,29.297,21.484
15.625,-9.277,21.973,-20.02,19.043
102.539,8.301,-0.488,6.836,-1.465
82.031,32.715,0,58.105,1.465
-22.949,39.551,47.363,-23.926,-20.02
7.812,24.902,6.836,-26.367,-0.488
13.184,18.066,-1.465,7.812,41.016
29.785,16.113,6.836,8.789,16.113
62.012,12.207,0.488,46.387,17.09
57.617,7.324,19.531,63.965,55.176
18.066,19.043,11.23,20.02,-0.488
22.461,23.926,13.184,3.418,-25.879
24.902,34.18,25.879,5.371,-38.574
-7.324,20.508,10.742,-20.996,-91.309
43.945,-1.465,36.621,-28.809,1.953
54.199,13.672,34.668,-8.789,13.672
46.875,11.719,-16.113,60.547,-26.367
85.938,-8.789,-9.766,71.289,11.23
87.402,13.184,-20.02,24.902,53.711
22.949,47.852,-15.137,47.852,68.359
-18.555,19.043,49.805,-16.113,32.227
-22.461,22.949,33.203,-86.426,27.832
36.133,27.344,1.465,22.949,48.828
115.723,-11.23,7.324,82.031,49.805
41.992,9.766,61.523,-26.855,63.477
-19.531,16.113,69.824,-58.105,33.691
71.289,28.809,10.254,48.34,36.133
70.312,23.926,4.395,62.988,10.742
41.992,20.508,19.043,5.859,33.203
83.496,8.301,41.992,4.395,91.797
25.391,22.949,-10.742,28.32,31.738
-46.387,21.973,5.859,9.766,-3.906
33.203,-16.602,68.359,-8.301,-2.93
107.422,35.156,5.859,44.922,45.41
44.434,31.25,5.371,25.391,64.453
-3.418,6.348,40.039,-70.312,76.66
73.242,12.695,9.277,32.227,70.312
18.066,46.875,-1.953,56.152,40.527
-3.906,1.953,37.109,-2.93,86.914
71.777,-13.672,43.945,-6.836,39.062
32.227,44.922,35.645,-1.465,-23.438
19.531,26.855,35.156,49.805,-19.531
-1.953,29.785,28.809,-7.812,-9.766
63.477,21.484,28.32,7.324,18.555
81.543,17.09,32.715,12.695,8.301
-7.324,51.758,11.719,-42.48,-8.789
27.344,22.949,55.176,-7.812,-39.551
62.5,19.531,32.227,13.184,21.484
35.645,23.438,4.395,29.297,79.102
76.66,25.391,28.809,50.293,50.781
-3.418,64.941,23.438,-31.738,7.812
-42.969,36.621,35.645,-25.879,14.648
60.059,0.488,14.16,36.621,25.879
26.367,62.012,3.418,-38.574,31.25
28.809,27.832,51.758,-41.992,61.035
75.195,-1.953,50.781,23.438,7.812
69.824,7.812,35.156,29.785,-4.883
61.035,20.996,32.715,41.992,8.789
29.297,57.617,11.23,-6.348,-52.734
-56.641,41.992,28.809,-57.617,16.602
1.465,-3.906,51.27,-22.949,81.543
71.289,20.996,40.527,0,16.602
41.504,32.227,26.367,17.578,-46.875
39.062,34.668,37.109,-17.09,-54.199
42.48,31.25,33.691,-25.391,26.367
73.242,22.949,16.602,34.668,85.449
20.508,23.926,39.062,-8.301,75.684
-20.02,2.441,47.363,-48.828,4.395
16.602,14.648,21.973,-25.391,15.137
35.156,30.762,28.809,-15.137,57.129
56.152,23.926,57.129,-5.371,5.859
42.48,21.484,39.062,-16.113,-2.441
3.418,30.273,14.16,-28.32,48.828
57.129,14.648,23.438,-24.902,55.664
74.707,35.645,14.16,1.465,2.441
42.969,45.41,5.859,12.207,-18.555
50.293,10.254,21.484,12.207,65.918
33.691,27.344,17.578,-30.762,97.168
16.602,10.742,31.738,-32.227,50.293
34.18,33.203,11.719,14.16,-14.648
78.125,42.969,23.438,12.695,-59.082
58.594,21.973,40.039,-21.484,-28.809
40.039,15.625,51.27,-28.809,19.043
20.996,13.184,70.312,-29.297,-4.883
31.25,25.879,59.082,-11.719,-48.828
44.434,29.297,62.012,9.766,82.52
47.852,11.23,60.547,31.25,78.125
16.602,17.09,104.004,-43.945,-11.719
-24.902,30.273,97.168,-75.684,23.926
41.504,35.645,29.297,32.227,14.648
83.984,16.113,80.078,27.344,-3.906
40.527,15.625,88.379,-23.926,-51.27
-11.23,44.434,69.336,-39.062,-47.852
35.645,45.898,53.711,8.789,-1.465
64.941,14.648,75.684,10.254,4.883
30.273,26.855,77.148,-30.273,53.711
42.969,53.223,48.828,-13.672,10.254
46.387,23.926,84.961,7.324,20.02
14.648,-10.254,101.562,-15.137,98.145
40.039,23.438,69.336,-28.809,49.805
74.707,34.668,53.711,10.254,58.594
45.898,30.273,55.176,26.855,47.363
-1.465,69.336,52.734,-18.066,12.695
-4.395,40.039,56.641,-54.199,-8.789
5.859,5.859,66.895,-52.246,17.09
51.27,15.625,54.199,2.441,63.965
76.66,9.277,34.668,39.551,15.137
35.156,19.531,36.621,12.207,-15.137
23.926,21.973,33.203,-9.277,-29.297
48.828,31.738,20.996,5.371,22.949
35.645,26.367,45.41,-18.066,78.613
-11.23,51.27,56.641,-69.824,27.832
14.648,58.594,37.598,-38.086,15.137
48.828,20.508,28.32,22.949,-32.227
42.969,15.625,29.785,6.348,-26.367
7.812,1.953,77.637,-26.855,-2.441
19.531,12.695,70.312,-16.113,-21.484
58.594,30.762,54.199,19.043,33.203
40.527,33.691,62.988,16.602,72.754
18.066,18.555,71.289,-16.113,12.207
10.254,21.484,88.867,-35.645,36.621
37.598,37.598,59.082,-20.02,55.176
4.395,32.227,46.875,-23.926,17.09
-10.254,34.668,45.41,-33.691,-1.465
53.223,21.484,27.344,10.254,25.391
52.734,22.461,14.16,4.883,48.828
43.945,35.156,21.484,-4.883,-2.441
38.086,32.715,29.297,16.602,6.348
38.086,14.16,32.227,18.066,-4.883
19.531,43.457,23.438,-24.414,12.207
10.254,38.086,39.062,-44.434,67.871
50.293,24.414,43.945,2.93,40.527
17.09,29.297,69.824,-17.578,21.973
-1.953,18.066,76.172,-39.551,53.711
25.391,28.32,22.461,4.395,95.703
41.504,32.715,21.484,15.137,41.992
26.367,49.805,39.551,-16.113,26.367
34.18,20.02,56.152,-33.203,45.41
59.082,26.855,34.18,-5.371,5.859
20.508,28.809,36.621,-9.277,-15.137
38.086,17.578,43.945,-17.578,20.508
38.086,44.434,31.738,-7.812,82.031
14.648,27.832,40.527,-11.719,24.414
20.996,17.09,46.875,-11.23,-10.742
24.414,54.688,5.859,4.883,11.719
55.664,40.527,4.883,4.883,-1.465
53.223,44.922,21.973,11.23,-5.859
18.066,56.641,28.32,8.789,-19.531
36.621,38.086,22.461,-3.906,36.621
19.531,41.016,13.184,-26.367,25.879
5.371,28.32,25.391,-9.766,41.504
27.832,25.391,22.461,-3.418,69.824
45.41,39.551,24.414,-0.488,33.203
33.203,23.438,58.594,-4.883,56.152
34.18,28.809,41.504,-9.277,40.039
35.156,46.875,0.977,3.906,-0.488
43.457,39.551,13.184,23.926,14.16
14.648,47.852,10.254,4.395,50.781
2.93,45.898,11.23,-31.25,48.34
23.926,55.664,-1.465,-12.695,66.406
13.184,48.34,-4.883,11.719,55.176
20.996,35.645,10.742,-11.719,-3.906
0.488,38.086,41.992,-44.922,30.273
16.602,29.785,20.02,-10.254,87.891
60.547,39.551,-7.324,41.016,31.25
39.062,24.414,22.461,34.18,-4.395
54.199,26.367,17.578,12.695,32.227
42.969,47.852,2.441,-9.277,52.246
-12.207,41.016,6.348,-21.973,26.367
4.395,28.32,21.973,-1.465,-10.254
39.062,34.668,28.32,8.301,20.996
41.504,33.203,23.438,-3.906,38.086
32.715,24.902,31.738,2.93,13.672
36.621,39.551,27.344,8.789,30.273
51.758,36.621,8.789,20.508,8.789
20.508,28.809,24.414,2.93,0.977
-1.465,51.27,45.41,-36.621,-4.883
23.438,52.734,44.922,-27.344,-16.113
30.762,37.109,20.508,0.488,66.895
34.18,44.922,16.113,23.438,8.789
35.156,36.133,27.344,27.344,-55.176
26.367,21.973,45.41,4.883,6.836
35.645,56.152,36.621,2.441,17.09
40.527,64.941,37.598,11.719,-4.883
39.062,15.137,57.617,-3.906,44.922
24.902,25.391,27.344,-2.441,35.156
33.203,40.527,14.648,2.93,-29.297
42.48,35.156,35.156,-1.953,17.09
28.809,32.227,56.152,3.906,-15.137
32.715,32.715,50.293,8.789,-43.457
36.621,42.48,33.691,14.648,-62.988
14.16,41.504,41.016,-10.254,-65.43
0.977,26.367,52.246,-37.598,-5.371
34.668,31.738,32.227,6.348,25.879
38.574,36.133,24.902,15.625,69.336
22.461,41.016,13.184,-7.812,10.254
8.789,31.738,21.484,-42.969,20.02
25.391,42.969,23.438,-35.645,65.43
41.992,41.504,49.316,-7.812,36.133
29.785,19.531,55.176,-5.371,36.621
3.418,22.461,36.133,0,6.836
9.277,34.18,50.293,-13.672,63.965
39.062,44.434,26.367,6.836,58.594
18.066,29.297,22.949,-1.953,-4.883
28.809,31.25,18.555,-10.254,27.832
36.133,45.41,11.23,-22.949,-20.996
18.066,35.156,17.09,-28.809,21.484
19.531,36.133,13.672,-9.766,72.266
55.176,45.898,6.348,1.953,50.293
55.176,42.48,16.113,8.301,-16.113
36.133,38.574,23.438,-2.93,-13.672
12.695,41.504,18.555,-31.25,45.898
1.953,54.688,18.066,-26.855,5.859
39.062,39.551,29.785,3.906,-27.832
38.086,33.203,39.062,9.277,20.996
18.555,35.156,56.152,-15.625,27.832
15.625,41.016,35.156,-17.578,-1.953
18.555,38.574,52.246,-4.395,39.062
34.668,29.297,67.383,8.789,73.242
44.922,33.203,20.02,17.578,42.48
39.551,32.715,20.996,9.277,28.809
15.625,22.949,46.387,-2.93,65.43
24.414,15.625,49.316,-3.906,33.203
49.805,28.32,33.691,8.301,32.227
32.227,29.785,45.41,0.488,86.914
20.996,26.367,45.41,0.488,109.863
13.184,20.02,28.32,0,65.918
21.484,25.879,19.043,-0.977,5.371
55.176,28.809,35.645,32.227,4.883
31.738,23.438,47.363,10.254,21.484
18.066,18.555,41.504,-8.301,55.664
21.973,27.344,24.414,20.02,36.133
14.16,33.691,30.762,6.836,-36.133
27.832,38.574,62.012,-29.785,8.301
20.02,39.551,79.59,-10.254,49.805
15.625,37.598,59.57,11.719,33.691
42.969,35.645,34.18,17.09,61.523
30.273,35.156,32.227,6.836,34.18
29.297,34.18,41.504,-1.465,19.043
30.273,27.832,37.598,2.93,11.23
10.254,39.551,33.203,-3.906,58.105
28.809,29.297,39.062,15.625,63.965
19.531,16.602,45.898,-5.859,40.527
23.926,17.578,49.805,-1.465,11.23
52.246,28.32,32.227,31.738,-47.852
41.016,30.762,39.551,27.344,-29.785
21.973,24.414,31.25,7.324,-16.113
22.949,19.043,33.691,5.371,-42.969
29.785,20.02,61.523,11.719,-4.883
39.551,21.484,54.199,17.09,37.598
38.574,26.367,49.316,20.02,21.484
23.438,31.738,61.035,10.742,-30.273
19.043,27.832,48.34,1.465,18.555
24.414,29.785,46.875,0,39.551
25.391,25.879,65.918,-6.348,22.949
31.25,24.414,62.012,10.254,-7.812
36.621,29.785,50.293,25.391,-24.902
14.16,21.973,62.012,0.977,1.465
15.137,14.16,70.312,-1.953,-1.953
45.898,18.555,59.082,20.02,39.551
28.32,26.367,66.895,14.648,53.711
16.113,29.297,79.59,17.09,0.488
-11.23,17.578,100.098,-2.441,34.18
-7.324,15.137,114.258,-15.137,5.371
49.316,28.32,102.051,27.344,1.465
39.062,33.691,107.91,27.344,-1.953
13.672,22.461,140.137,10.254,-3.418
23.926,13.672,155.273,15.625,-16.602
32.227,11.719,156.25,12.695,-33.691
38.574,10.254,165.039,12.695,38.086
33.203,10.742,161.133,23.926,31.25
20.02,12.207,159.668,17.578,-8.789
13.672,10.742,155.273,-1.465,0
8.789,14.16,151.855,-14.16,14.16
34.18,11.23,154.297,10.254,-5.859
38.574,20.508,149.414,19.531,36.621
21.484,26.855,150.879,10.742,62.5
20.02,20.02,145.02,10.742,7.324
12.695,25.391,138.672,-1.953,66.895
25.879,26.367,147.461,0,119.629
35.156,22.949,150.391,7.324,15.625
26.855,24.902,151.855,6.348,-38.086
14.648,29.297,141.602,-0.488,-25.879
5.859,33.203,129.395,-16.602,13.672
17.578,27.832,140.625,-15.625,30.762
30.273,30.273,152.344,-3.418,18.066
17.578,32.715,154.297,-3.906,45.898
1.953,22.461,153.809,-10.254,56.152
3.906,8.789,150.391,-25.391,62.988
13.672,-3.418,149.414,-24.414,26.855
18.066,0.488,142.09,-13.184,17.578
16.113,0,134.277,-3.418,-25.879
-2.93,-2.441,154.785,-17.09,1.465
-6.348,1.465,152.344,-21.484,74.219
26.367,2.93,150.879,-3.906,45.41
40.039,1.953,148.438,7.324,23.438
30.762,7.812,146.484,-2.441,58.105
14.16,14.648,147.949,-6.348,22.461
12.207,12.207,137.207,-1.953,75.195
33.203,13.672,140.625,-3.906,86.426
56.152,23.438,140.137,9.766,9.277
40.039,26.367,141.602,10.742,46.875
20.996,29.785,141.602,0,15.137
18.066,33.203,126.465,-2.441,-20.996
21.973,32.715,132.812,-7.812,11.23
34.18,33.203,145.996,-5.859,22.949
20.996,38.574,148.926,1.465,40.527
10.254,39.551,135.742,0,56.641
5.859,36.133,113.281,-12.207,17.09
14.16,37.598,123.047,-17.578,-38.086
37.109,39.062,142.09,-8.789,-4.395
30.762,40.527,136.719,-4.395,52.734
7.324,41.504,127.441,-4.883,27.344
-3.418,40.527,121.582,-12.207,2.441
4.395,40.527,119.629,-19.531,5.859
22.461,39.551,124.512,-17.09,28.809
21.973,39.062,129.883,-2.93,26.855
12.695,41.504,135.742,-0.488,-3.906
9.766,42.48,123.047,-9.277,24.414
8.301,35.645,113.77,-14.16,31.738
17.09,35.645,130.371,-13.672,16.602
20.02,32.227,129.395,-1.465,19.531
12.695,24.902,125.977,-3.906,17.09
9.766,25.391,128.418,-12.695,22.949
12.207,28.32,113.77,-13.184,25.879
13.672,32.715,121.094,-12.695,-7.812
26.367,35.156,134.277,1.465,-12.695
31.738,35.645,124.512,3.418,-12.695
11.719,38.086,111.816,-5.859,-13.672
-2.441,41.992,106.445,-19.531,5.371
16.602,41.504,114.258,-16.602,-0.977
39.551,39.551,113.281,4.395,73.242
23.926,44.434,105.957,6.836,101.562
5.859,49.805,108.398,-1.465,51.758
7.324,46.875,103.027,-9.277,22.949
15.625,48.828,107.422,-6.836,-1.465
20.996,49.805,111.816,-6.836,-4.883
29.785,48.34,112.793,4.395,-11.719
20.996,53.223,113.281,13.672,52.246
9.766,50.781,106.934,1.465,65.43
20.996,44.922,109.375,3.418,-13.672
29.785,44.434,110.84,11.23,18.555
26.855,43.457,105.957,10.254,41.016
20.996,39.551,99.121,0.488,30.273
5.859,35.156,89.355,-8.789,32.227
21.973,33.691,91.309,-0.977,8.301
52.246,39.062,101.074,8.789,19.531
39.551,41.504,103.027,10.254,-0.977
20.02,40.039,110.352,7.324,33.691
15.137,35.645,98.633,3.906,55.664
28.32,34.668,85.449,-2.441,45.898
47.852,37.598,85.938,1.465,-6.348
35.156,38.086,89.355,7.812,-31.25
19.531,38.086,92.773,3.418,-3.418
19.043,34.668,77.637,0,18.066
28.32,35.645,63.477,-7.812,63.477
45.41,37.109,74.219,-2.441,46.387
40.527,31.738,83.496,6.348,-14.648
30.762,36.133,89.844,0.488,-5.859
17.09,38.086,90.82,-6.348,28.32
20.996,31.25,77.637,-4.395,-11.719
43.945,31.25,82.52,8.789,18.555
38.574,32.715,93.262,14.16,51.27
33.203,32.715,91.797,9.277,34.668
27.344,28.809,76.66,3.418,34.668
21.484,25.391,66.895,-0.488,34.668
24.902,25.391,75.684,5.371,10.742
25.879,28.809,83.984,11.719,-6.348
18.066,33.203,87.402,6.836,-38.574
10.742,31.738,93.75,-0.488,17.578
9.766,25.879,95.703,-4.395,69.824
19.043,24.414,104.004,-3.418,83.008
34.668,23.926,111.328,10.254,94.727
22.461,22.461,117.676,10.742,14.16
12.207,19.043,116.699,4.883,-13.672
22.461,20.996,100.098,0,-5.859
24.414,28.32,89.844,-0.977,10.742
36.133,28.32,82.031,9.766,62.012
35.645,32.227,65.918,5.371,62.988
18.555,28.809,59.082,0.977,53.711
8.789,22.461,55.176,-5.371,39.062
14.16,21.973,72.754,-10.254,24.902
37.598,20.02,76.66,-3.418,70.801
29.785,19.043,67.871,-0.977,84.473
-0.977,20.02,76.66,1.953,47.852
9.766,16.602,67.383,-0.488,32.227
32.715,19.043,74.219,-3.906,22.949
28.32,15.625,79.59,4.883,-10.254
21.973,15.137,78.125,11.23,-17.09
-1.465,18.066,81.055,4.883,18.066
-1.953,15.625,64.941,-5.859,49.316
12.695,12.695,66.406,-9.766,51.27
27.832,12.695,77.148,1.953,42.969
30.762,12.695,76.172,15.625,18.066
6.348,17.578,87.891,9.766,37.598
14.16,13.184,79.102,3.418,69.824
0.488,36.133,56.641,-19.531,41.504
3.906,36.133,64.941,-12.207,38.086
41.016,19.531,64.453,17.09,55.176
29.297,31.738,52.734,11.23,65.43
15.137,20.508,53.223,9.766,21.484
13.672,23.926,58.105,0.488,35.645
35.645,27.832,62.012,2.441,-6.348
38.574,25.879,60.059,9.277,-50.781
2.441,29.785,49.805,-4.395,-27.832
-40.039,36.133,35.645,-19.531,-44.434
-41.016,41.504,41.016,-20.996,-24.902
47.363,32.227,61.035,0.488,51.27
65.918,15.137,47.363,10.742,48.828
36.621,9.766,35.156,3.418,35.645
32.227,24.902,32.227,0,62.5
18.555,15.137,20.996,-1.953,46.387
-25.879,28.809,20.02,-19.531,46.875
-5.859,49.805,26.855,-13.672,76.172
38.574,10.254,31.738,8.301,95.215
-14.16,17.578,7.812,-4.395,12.695
-5.371,16.113,-8.301,-8.301,52.734
53.711,20.508,-5.371,-3.906,74.707
63.477,29.785,-4.883,12.695,47.852
38.086,7.324,-2.441,15.137,61.035
-48.828,63.965,-18.555,-33.203,4.883
-51.27,77.637,-37.598,-42.48,-34.668
53.711,4.395,-17.578,1.465,30.273
31.25,9.766,-18.555,3.418,76.66
-30.273,25.879,-31.25,-4.395,33.203
34.18,29.297,-37.109,-3.906,-5.859
77.637,-5.371,-41.016,-5.859,-4.395
-78.125,56.641,-54.688,-45.898,-61.035
-58.594,76.172,-47.363,-31.25,7.324
62.5,-3.906,-31.738,11.719,68.848
75.195,5.859,-21.973,14.648,37.109
70.312,25.879,-30.762,3.906,36.621
55.664,-7.812,-28.32,8.789,75.684
25.391,18.555,-41.016,-2.93,65.43
7.324,41.504,-55.176,-17.578,5.859
31.738,26.367,-32.715,3.906,3.418
-27.344,60.547,-45.898,-20.996,47.363
-30.762,29.785,-51.758,-23.926,53.223
50.293,-22.949,-30.762,-2.441,55.176
30.273,7.324,-39.062,-20.02,17.578
59.57,-18.066,-30.762,6.348,-56.641
52.734,-20.02,-27.344,-3.418,-19.043
10.742,-16.602,-30.273,-11.719,25.391
-18.555,12.207,-31.738,-10.742,49.316
0.977,18.555,-33.691,-20.02,61.035
42.969,16.113,-31.738,-23.438,34.18
-57.617,47.852,-49.805,-43.945,14.16
-93.262,-14.16,-44.434,-36.133,-5.371
62.012,-27.832,-29.297,-8.789,6.836
109.863,-27.344,-23.438,10.742,39.551
57.129,-39.551,-24.414,2.93,38.086
41.504,-35.645,-43.945,-7.812,47.852
-9.766,-23.926,-42.48,-19.043,79.102
0,-8.301,-13.672,-19.531,1.953
100.586,-59.082,0,10.742,36.133
50.781,-64.453,-15.137,-5.859,87.402
-31.25,-19.043,-23.438,-26.855,-16.113
-38.574,-18.066,-16.113,-25.391,27.344
93.75,-76.172,29.785,12.207,51.758
151.367,-111.328,60.059,41.016,17.578
75.195,-77.148,50.781,19.531,3.906
22.949,-76.172,28.809,3.906,21.973
-82.52,-43.945,-25.879,-34.668,20.508
-5.859,-52.246,-45.898,-26.855,-6.348
119.629,-126.953,-27.344,29.297,-74.707
71.777,-79.59,-28.32,15.625,-81.055
-26.855,-42.48,-28.32,-10.742,16.113
-11.23,-90.332,-30.273,1.465,30.273
96.191,-107.91,-14.648,16.602,7.324
74.219,-89.844,-8.789,12.207,17.578
25.391,-76.66,-12.695,3.906,22.461
39.062,-71.777,-6.836,9.277,17.578
55.176,-87.891,-23.926,16.113,-50.293
60.547,-79.102,-19.531,17.09,-6.348
79.59,-71.289,-4.883,24.902,86.426
68.848,-66.406,-11.23,21.484,30.762
45.898,-58.105,-5.859,16.113,54.688
40.039,-60.547,-17.578,10.254,55.664
41.992,-66.406,-23.926,4.395,5.859
52.246,-54.688,-18.066,5.371,24.902
50.293,-40.527,-28.32,6.348,-14.648
34.668,-37.109,-20.996,-1.465,-6.348
36.133,-39.551,-17.09,0.488,16.602
36.133,-47.852,-4.883,-7.812,-5.371
51.758,-41.992,21.484,-2.93,32.715
52.734,-35.645,24.902,20.996,46.387
32.715,-34.18,23.926,4.395,-33.203
23.926,-29.785,23.438,0.977,12.207
18.555,-24.414,32.227,1.953,86.426
36.133,-23.926,40.039,1.953,8.301
51.758,-27.832,20.996,4.883,-21.973
31.25,-26.367,3.906,-6.348,-9.277
6.348,-24.414,-13.184,-22.461,-37.598
10.254,-25.391,-24.902,-20.508,-15.625
24.902,-18.066,-12.207,-13.184,-0.977
25.391,-11.719,-2.93,-8.301,20.508
17.09,-12.207,-3.906,16.602,62.5
9.766,-21.973,9.766,5.859,58.594
5.371,-17.578,8.301,-19.043,70.312
27.344,-8.789,0.488,2.441,85.938
41.504,-11.23,2.93,19.043,52.246
31.25,-5.371,9.277,10.742,22.461
15.625,-3.906,29.785,0.977,-24.414
22.461,-4.883,26.855,3.418,0
36.133,-5.371,37.109,-3.418,16.602
41.016,-3.418,44.922,11.23,-4.395
26.367,-4.883,51.758,27.832,20.02
13.184,-4.883,61.035,15.625,10.742
17.578,-1.465,54.688,14.648,1.465
16.113,-5.371,72.754,-12.695,1.465
19.043,-9.277,82.031,-35.645,-26.855
15.137,-0.488,68.848,-14.16,-64.941
-0.977,-10.742,91.309,-8.301,-62.5
1.465,-10.742,109.375,-29.297,47.363
17.578,12.207,97.656,-22.949,84.473
23.438,5.371,124.023,-29.785,27.832
23.438,11.719,104.004,8.789,12.207
16.113,20.996,92.285,27.344,22.461
8.301,11.719,87.891,-12.207,54.199
0.977,5.859,88.867,-46.875,48.34
4.883,-1.953,120.117,-59.57,0
29.297,15.137,91.797,-4.883,-14.16
1.465,31.738,99.121,-17.578,17.578
6.348,32.227,85.938,-3.418,-9.277
14.648,18.066,84.961,-6.836,32.715
22.461,29.297,103.516,15.137,61.523
37.598,31.738,103.027,-4.395,-8.789
-4.395,-11.719,153.809,-69.824,-45.898
20.996,6.348,110.352,13.184,-55.176
42.969,25.391,79.102,36.621,-16.113
35.645,3.418,140.625,5.859,38.574
57.617,10.742,119.629,36.133,91.309
43.457,18.066,105.957,54.199,49.316
9.766,8.789,149.414,-23.926,16.602
16.113,11.23,137.207,-46.387,57.617
40.527,23.438,127.93,24.414,27.344
62.988,36.621,116.211,83.496,-5.371
53.223,30.273,111.328,73.73,33.203
23.926,8.789,144.043,-2.441,56.152
14.16,7.812,126.953,-7.324,-0.977
25.879,19.043,115.234,12.207,-10.254
41.992,22.461,122.559,-1.953,58.105
11.23,12.695,141.602,-38.086,39.062
18.555,17.09,131.836,18.555,1.465
24.414,25.879,116.699,35.645,37.598
15.137,14.16,150.391,-9.277,43.457
20.508,27.344,165.527,7.812,26.367
46.387,50.293,135.742,45.898,32.227
32.227,23.926,187.012,40.039,79.102
-16.113,16.113,239.258,-16.113,64.941
4.395,29.785,229.492,-58.594,26.367
36.621,35.156,208.008,-1.465,-18.066
37.109,30.273,203.125,70.801,-22.461
1.465,19.531,243.652,-3.418,46.875
0.977,30.762,214.844,-6.836,19.043
19.531,42.969,195.312,-7.812,71.777
24.414,33.691,211.426,0,41.016
9.277,25.391,245.605,25.879,24.902
1.953,10.254,257.812,-14.648,58.594
13.672,14.648,203.125,24.902,2.441
9.766,26.367,190.918,20.996,-29.297
26.855,35.645,194.824,27.832,-45.41
0,16.113,202.148,-17.578,4.883
-14.16,3.906,214.355,-34.668,33.691
0.977,21.484,191.895,30.273,15.137
9.277,19.531,180.176,20.508,-4.395
14.16,13.184,224.121,-27.832,-6.836
18.555,17.09,233.398,9.277,19.043
16.113,25.391,175.781,49.316,49.316
-4.395,15.625,184.082,-4.883,15.625
-0.977,14.648,192.383,-16.602,49.316
30.273,25.879,154.297,16.113,75.684
20.508,18.066,167.969,9.277,30.762
-11.719,10.742,200.684,-34.668,53.711
15.625,29.297,152.344,31.738,74.219
16.602,29.785,137.695,20.996,36.133
5.859,20.02,169.434,-29.785,-11.23
22.949,20.508,152.344,19.531,-34.668
22.461,19.531,132.324,39.062,-9.766
1.465,4.883,150.391,1.465,16.602
-10.254,-3.906,167.48,-36.621,69.824
9.277,5.859,155.762,-12.695,79.102
31.25,20.508,133.789,44.922,-5.859
32.715,9.277,135.254,21.484,41.504
29.785,14.16,124.023,29.785,41.016
18.066,29.785,130.371,43.457,3.418
22.461,20.02,149.414,15.625,-1.953
20.996,13.672,158.203,-5.859,4.883
1.465,9.766,166.016,-17.578,29.297
4.395,16.602,130.371,-8.301,20.508
-1.953,20.02,148.926,-5.371,26.855
-13.184,8.301,191.895,-60.547,-7.812
31.25,-8.301,137.207,-50.781,-41.992
40.039,9.277,97.656,31.25,-25.391
26.367,29.297,107.422,58.105,4.883
13.672,14.16,104.98,12.207,-53.711
28.32,17.09,109.863,10.254,-56.641
49.316,18.555,123.047,14.648,-11.719
31.25,12.207,114.746,-7.812,-21.973
16.602,10.742,125.488,24.414,-18.555
16.602,22.461,104.492,10.254,3.906
41.504,22.949,76.172,12.695,15.137
37.598,35.156,96.68,42.969,-4.883
28.32,26.855,122.559,-10.254,11.23
49.805,11.23,96.68,13.672,50.781
34.668,25.391,66.895,50.293,22.949
41.016,21.973,69.336,26.855,9.277
44.922,11.719,76.66,7.324,28.32
19.043,0.488,93.75,2.93,5.371
8.789,4.395,90.82,-37.109,14.16
13.184,3.906,73.242,-41.504,25.879
10.742,-4.395,76.172,12.207,39.062
25.879,2.441,52.246,4.395,21.973
31.25,8.789,25.879,5.859,28.32
34.18,10.742,9.766,36.621,47.363
18.066,12.695,19.043,-8.301,-21.973
9.766,17.578,20.02,-47.852,-13.672
36.133,10.742,8.789,3.418,67.383
52.246,16.113,0.488,26.367,39.551
46.387,20.02,-7.812,34.18,-14.16
20.996,7.324,-11.23,-4.883,27.344
19.043,8.301,-19.043,-20.02,60.059
43.945,15.137,-5.859,-29.297,31.738
49.805,15.625,-18.066,-5.371,58.105
19.531,8.301,-8.301,25.391,40.527
0,6.348,3.418,10.254,-4.883
2.441,8.301,-4.395,-11.23,26.367
31.25,3.906,-0.488,18.555,33.691
17.09,-4.883,37.109,22.949,66.895
-8.789,5.859,31.25,-3.906,111.816
-2.441,8.301,-1.465,-20.508,40.527
8.301,9.766,-20.02,0.977,30.273
37.598,17.09,-19.531,25.879,32.227
14.648,21.484,27.832,-5.859,-20.996
-9.766,21.973,40.527,-50.293,42.969
22.461,27.832,3.906,4.883,61.035
4.395,15.625,36.133,-8.301,-2.441
6.836,15.625,57.129,-24.902,-9.277
34.668,28.809,27.832,25.391,41.992
30.273,34.18,23.926,42.48,13.672
19.531,37.109,29.297,32.227,-7.324
4.395,29.297,23.926,-21.973,11.23
15.137,31.25,46.875,-11.23,-1.953
25.879,23.438,67.383,4.395,15.625
10.254,8.789,89.844,-28.809,-2.441
1.953,27.832,90.82,-28.32,58.105
11.719,40.527,49.316,-3.418,15.137
24.902,36.621,51.27,0,-34.18
39.551,36.621,69.336,6.836,31.738
30.762,37.109,84.961,5.371,20.508
23.438,38.574,89.355,8.301,13.184
12.695,34.18,83.496,-4.395,39.062
20.508,33.203,70.801,-7.324,41.504
20.508,17.09,98.145,-20.508,6.836
23.926,15.137,85.449,-33.203,-4.395
28.809,23.438,51.27,9.766,-19.043
5.371,15.625,81.055,-14.648,-25.879
21.973,26.855,69.824,-12.207,-4.395
43.457,26.855,70.801,33.203,17.578
45.898,20.02,73.73,23.438,56.641
33.691,23.438,66.895,12.207,31.25
17.578,25.391,64.453,12.695,25.391
19.043,21.973,68.848,8.301,59.57
38.574,17.578,75.684,7.812,-10.254
42.969,19.043,77.637,14.16,-62.988
30.762,18.555,78.613,6.836,7.324
19.043,21.484,61.523,-1.953,10.742
17.578,20.02,53.711,-10.742,-9.277
26.367,18.066,74.219,-18.066,27.344
32.227,20.508,68.848,-10.742,38.574
26.367,20.02,65.43,-4.883,29.297
8.789,24.414,79.102,-10.742,19.043
-3.418,25.391,66.406,-22.949,24.902
25.879,19.531,68.848,-20.02,52.734
40.039,21.973,74.707,-14.16,44.922
26.855,26.367,60.547,-11.719,-2.93
17.09,30.762,51.758,-17.09,-36.133
17.578,31.738,48.828,-28.809,-41.504
30.273,29.297,60.059,-25.391,12.695
45.41,27.832,59.082,-12.695,38.086
41.016,26.367,62.012,-3.418,-11.719
25.879,27.344,78.613,-14.648,17.09
19.043,28.809,62.988,-19.531,62.012
28.32,27.344,54.199,-15.625,8.789
32.715,28.32,56.152,-8.789,13.184
20.02,33.691,53.223,-8.789,-27.832
21.973,28.32,60.547,-11.23,-16.602
20.508,19.531,46.875,-14.16,13.672
13.184,26.367,37.109,-21.973,15.137
21.484,32.227,44.922,-14.16,22.949
36.621,29.785,40.527,-15.137,5.371
25.391,28.809,37.109,-10.742,2.441
15.137,24.902,27.832,-11.719,-3.906
23.438,20.996,25.391,-27.344,-14.16
31.25,23.438,31.25,-22.461,-13.184
27.344,23.438,24.902,0.977,10.742
22.949,24.902,32.715,-11.719,11.23
11.23,26.367,29.785,-19.043,30.762
8.301,24.902,19.043,-13.184,72.266
36.133,24.414,27.832,-0.977,22.461
40.039,27.832,24.414,0,-14.16
22.949,30.762,10.742,-3.906,21.484
11.719,30.762,-4.395,-1.465,3.906
23.438,28.32,0,-10.742,-1.953
22.949,32.715,19.531,-31.738,63.965
31.25,34.668,22.949,-20.02,50.293
30.273,28.809,19.043,15.625,-17.09
7.324,28.32,7.324,-7.812,-1.465
23.438,27.344,5.371,-11.23,64.941
37.598,39.062,7.812,0,18.555
20.508,46.875,6.836,-21.973,4.395
17.578,28.809,9.766,-10.742,34.18
18.555,23.438,-4.883,-2.93,43.945
15.625,29.785,-17.09,-17.578,33.203
28.809,27.832,-3.906,6.836,10.742
-11.719,87.891,-21.973,-3.418,61.035
-6.348,86.426,-27.344,-17.578,71.289
16.113,8.301,1.465,-6.348,20.02
9.277,-1.953,3.906,10.254,38.574
36.133,7.812,-10.254,7.324,61.035
12.695,45.41,-27.344,-3.906,9.766
-58.594,81.055,-43.945,-38.086,-17.09
-126.953,88.379,-56.641,-56.641,-13.184
-72.266,23.926,-53.223,-22.461,-7.812
60.059,-4.883,-41.504,7.324,5.371
26.367,48.34,-62.012,-0.488,11.23
-4.395,52.246,-90.332,-22.949,42.48
58.105,20.02,-103.027,-3.906,30.273
-52.246,93.75,-88.867,-55.176,-7.812
-48.828,81.055,-45.41,-92.285,37.598
96.68,-19.531,-42.969,9.277,2.93
57.617,-23.438,-50.293,56.152,-23.926
-2.441,-18.066,-55.664,22.949,13.184
95.703,-10.254,-79.102,7.324,13.672
116.211,21.973,-90.82,2.441,-20.02
94.727,-21.973,-71.777,25.391,2.93
