TP9,AF7,AF8,TP10,Right AUX
20.508,12.207,25.391,11.23,15.137
-1.465,15.625,35.156,-0.488,-2.93
-0.977,15.625,36.133,4.883,-24.414
25.879,15.625,34.18,4.883,6.836
31.738,16.113,27.344,9.766,32.715
17.09,14.648,19.531,12.207,34.668
4.395,12.695,20.02,0,17.578
-5.859,12.207,23.438,-4.395,39.551
18.066,15.137,25.879,5.859,38.574
37.598,15.625,22.461,17.578,20.996
27.832,14.16,17.578,11.719,34.18
5.859,18.066,23.438,9.277,51.758
-9.277,16.602,21.973,4.883,41.504
13.184,14.16,19.531,1.953,11.23
38.086,12.695,21.973,22.949,22.461
32.227,9.277,20.02,23.438,37.598
19.531,9.766,20.996,6.348,14.16
1.465,2.93,28.809,13.184,-19.043
18.555,2.93,35.645,32.715,-12.207
48.828,18.555,31.25,27.832,58.105
35.645,21.973,18.066,12.695,24.414
7.324,19.043,17.09,-1.953,-11.23
0.488,19.531,17.09,-5.371,16.602
19.531,25.879,12.695,5.371,26.367
39.062,35.645,5.859,11.719,54.199
36.621,33.691,1.465,11.719,29.297
9.766,30.273,0.488,-6.348,7.812
-16.602,27.344,-8.789,-19.043,22.949
-3.906,24.902,-13.672,-14.648,34.18
24.414,23.438,-11.719,-4.395,9.277
18.066,22.461,-13.184,8.789,-17.578
0.488,25.879,-9.766,7.324,-18.555
-17.578,26.367,-5.859,-7.324,8.301
-15.625,23.926,-8.301,-9.277,44.922
19.043,22.461,-11.23,-2.441,66.895
29.785,22.461,-17.09,11.23,33.203
14.648,24.902,-18.066,22.461,62.5
-1.465,26.367,-19.531,8.301,74.707
-3.906,26.855,-20.508,-3.906,21.484
21.973,26.855,-20.996,5.859,13.184
25.391,24.414,-18.555,16.602,2.441
9.277,21.973,-15.625,18.066,-17.09
-2.93,14.16,-15.137,8.301,-5.859
-14.648,11.23,-9.766,-4.883,18.066
5.371,15.137,-3.906,4.395,47.363
18.555,12.207,-7.812,19.531,73.242
4.883,8.789,-10.254,12.695,23.438
-7.324,9.277,-2.93,3.418,0
-11.23,12.207,-5.371,4.395,0.977
9.766,15.625,-6.348,5.371,65.918
30.273,15.137,-9.766,9.277,59.57
23.438,19.043,-15.625,9.277,9.766
3.418,23.926,-19.531,-2.93,4.395
-16.113,21.484,-21.973,-11.719,12.695
4.395,19.531,-13.184,-5.371,63.477
31.25,17.578,-9.277,3.906,36.133
15.625,17.578,-6.348,7.812,-3.906
-0.977,19.531,-2.93,3.418,56.641
-7.324,18.066,-5.859,-3.906,68.848
4.883,17.09,-3.418,-2.441,28.32
30.762,17.578,-1.953,4.883,25.879
27.832,14.648,-2.441,11.23,11.719
12.207,11.719,-3.906,5.371,1.953
-1.465,11.719,-6.836,-6.348,-4.883
0.977,9.277,1.465,-2.93,30.762
30.762,12.695,8.301,13.672,20.02
28.809,17.09,9.277,23.438,-31.738
10.742,14.648,9.766,20.508,39.551
-5.859,11.719,4.883,9.277,-22.461
-1.953,9.766,8.301,0.488,-92.773
30.762,9.766,14.16,12.207,-26.855
27.344,9.277,10.742,13.184,4.395
10.742,10.254,8.789,10.254,0.488
7.812,11.719,8.789,4.883,-18.555
7.812,12.207,11.719,-9.277,31.25
29.297,13.184,14.16,2.93,42.969
28.32,13.184,12.207,15.137,1.465
8.789,11.23,9.766,8.301,15.625
-7.324,10.254,14.648,2.441,21.484
-5.859,14.648,14.648,-2.93,-36.133
22.461,18.555,13.672,-5.371,-29.297
30.273,15.625,14.16,10.254,26.367
6.836,10.254,9.766,16.602,-26.855
-7.812,8.301,6.836,5.371,3.418
-2.441,13.184,7.324,1.953,103.516
24.414,15.137,7.812,20.508,76.66
37.109,11.719,4.395,27.832,11.23
20.02,14.16,7.324,17.578,-6.836
11.23,18.066,9.766,16.113,-21.484
5.859,19.043,11.23,15.625,0
17.578,21.973,14.648,14.648,-11.23
33.691,23.438,17.578,19.531,20.996
22.949,24.902,20.02,17.578,41.504
9.277,27.344,21.973,18.555,27.832
-8.301,24.902,15.625,13.184,47.852
0.488,22.949,11.719,5.371,-0.488
28.809,20.02,12.695,12.695,12.207
20.508,13.672,11.23,14.648,9.277
-0.488,14.648,14.16,9.277,-10.254
-16.113,17.578,15.137,2.441,40.527
-5.859,18.066,13.672,-4.883,63.965
25.879,19.043,14.16,13.184,-22.461
22.949,19.043,18.555,20.996,-2.441
6.348,17.578,26.367,13.672,81.543
0,12.695,26.367,10.254,26.367
2.93,12.207,29.785,1.465,38.574
25.391,12.207,29.297,18.066,58.105
22.461,9.766,25.391,29.297,-50.781
11.719,15.137,27.344,14.16,-42.969
-8.789,20.02,26.367,2.441,12.207
-11.23,17.09,21.973,3.418,10.742
26.855,16.602,20.508,15.137,62.988
31.25,19.043,16.113,20.996,38.574
16.602,20.508,14.16,20.996,1.465
6.836,20.508,15.137,14.648,13.184
3.906,20.508,18.555,7.324,28.32
32.227,21.973,16.602,13.184,41.016
38.086,20.996,13.184,22.949,83.984
25.391,20.02,20.02,23.438,83.008
14.16,20.02,17.578,15.137,42.48
13.184,18.555,15.137,18.066,32.227
29.785,14.648,26.367,20.508,-2.441
26.367,10.254,30.273,13.184,27.344
13.184,7.324,31.25,17.09,46.875
1.465,9.766,31.738,10.742,42.969
-3.906,12.207,25.391,-4.395,82.031
14.648,9.277,20.02,0.977,61.523
25.391,7.812,13.184,12.207,-3.906
13.184,8.789,13.672,9.766,-12.695
-6.348,10.254,8.789,-5.371,37.109
-15.625,11.23,1.465,-9.766,61.035
20.02,8.789,-0.488,2.441,43.457
44.922,8.789,0.488,16.602,9.277
29.785,13.184,6.348,22.461,-23.438
16.602,16.113,4.883,17.578,-40.039
5.371,15.625,5.371,11.23,-5.371
21.484,11.719,14.648,15.625,-4.395
54.688,7.812,10.742,27.344,-41.504
46.387,10.254,12.695,25.391,24.902
19.043,10.742,16.113,17.578,22.949
-2.441,5.371,8.301,10.254,27.344
9.766,1.953,12.207,12.695,44.922
36.133,4.883,21.484,29.297,39.062
32.227,11.719,26.855,35.156,21.484
20.996,12.695,33.691,23.438,29.297
0.488,7.812,28.32,10.254,6.348
4.395,8.301,26.855,10.254,30.273
34.18,10.742,26.367,24.414,121.094
26.855,11.23,14.16,27.344,90.332
10.742,11.23,6.348,19.531,8.301
-0.488,13.184,6.348,15.137,-10.254
-2.93,15.625,12.207,7.324,30.762
22.461,17.09,11.719,10.742,-11.23
31.25,14.648,7.812,21.973,-47.363
15.137,15.137,13.184,18.555,-20.996
-0.488,19.043,12.695,6.836,-9.277
3.906,18.066,18.555,10.254,25.391
37.598,19.531,26.855,18.555,58.105
54.199,23.438,22.461,30.273,5.371
39.551,22.461,22.461,32.715,-24.902
19.531,23.926,22.461,22.949,15.137
14.648,23.926,17.578,25.879,47.852
35.156,20.996,21.484,32.227,55.664
41.504,20.02,24.414,31.738,75.195
31.738,18.555,23.926,29.785,64.941
16.113,19.531,26.367,21.484,17.09
7.324,19.531,27.344,13.672,-23.438
30.762,18.555,29.297,12.695,-18.066
44.434,19.531,25.391,23.438,17.578
20.02,13.672,26.855,21.973,82.52
0.977,10.742,22.949,10.254,68.848
-7.324,14.648,20.02,-2.441,18.066
9.277,15.137,26.367,3.906,41.992
26.855,14.16,20.508,20.02,-17.09
15.137,15.137,16.113,15.625,-3.418
6.348,18.555,19.531,9.766,14.16
-10.254,15.625,18.066,-0.977,-28.809
1.953,12.207,18.066,2.441,-20.02
32.227,11.23,14.648,17.578,6.836
16.602,10.254,9.277,22.461,30.762
2.441,8.789,8.789,14.648,3.418
0.488,8.301,6.836,7.324,12.207
13.184,11.719,7.324,12.207,8.301
35.645,10.254,10.742,17.09,2.441
28.32,4.883,13.184,24.414,-9.277
7.812,3.906,16.113,20.508,1.953
-6.836,4.883,9.277,6.836,50.293
-4.395,4.395,6.836,10.742,-5.371
25.391,5.371,10.254,20.02,1.953
32.227,9.766,7.324,14.16,26.367
15.137,11.23,12.695,14.648,-9.277
-7.812,8.301,15.137,9.766,-20.02
-2.93,10.254,13.672,1.953,11.719
24.414,7.324,15.137,18.555,30.762
20.508,0.977,11.23,21.484,-10.254
4.395,1.465,15.625,11.719,-5.859
-8.301,5.371,13.672,9.277,4.883
-6.836,6.836,8.301,5.859,34.18
24.902,7.324,18.066,9.277,62.012
37.598,8.789,18.066,18.066,65.43
25.879,13.672,20.508,17.578,18.555
4.395,19.531,24.414,9.277,5.859
0.977,20.508,20.508,3.906,31.25
36.621,21.973,20.996,8.789,28.809
42.48,25.391,20.508,23.926,22.461
23.926,25.879,20.508,32.715,11.719
16.113,24.902,13.672,24.414,-25.879
3.418,21.484,13.184,9.277,9.277
18.555,20.02,20.02,11.719,58.105
34.18,19.531,22.949,22.461,52.734
20.508,17.578,30.762,29.297,11.23
8.789,20.996,29.297,30.762,2.93
0.977,20.508,24.414,9.766,-3.906
17.09,16.602,28.809,3.906,-9.277
27.832,15.137,26.855,16.113,-13.184
11.719,14.16,29.297,11.23,-13.672
-1.465,15.137,36.621,14.648,6.836
-16.602,13.672,32.227,12.207,37.598
5.859,11.719,35.156,11.719,31.738
35.645,10.742,44.922,24.902,35.156
32.715,7.324,44.922,33.691,11.23
20.02,11.23,32.227,20.02,-9.277
-1.465,18.555,19.531,-2.441,16.113
11.23,15.137,21.484,-1.953,-20.02
34.18,15.137,23.438,4.883,-32.227
29.785,18.066,20.02,15.137,-20.996
27.832,21.484,25.391,13.184,-2.441
7.812,18.555,26.855,-0.488,34.18
11.23,14.648,27.344,9.277,23.926
40.527,17.578,30.273,28.32,48.828
30.762,19.043,26.367,22.949,54.199
19.043,20.996,28.32,11.23,28.809
8.789,19.043,26.367,-1.465,12.695
-0.488,19.043,22.461,-8.789,41.016
25.879,19.043,21.973,11.719,22.461
35.645,19.531,21.973,21.973,4.883
20.508,20.508,23.926,14.16,6.348
4.395,22.461,22.461,7.324,37.598
9.277,24.902,23.926,9.277,67.871
39.551,24.414,26.855,14.16,11.719
41.016,21.484,26.367,16.113,-24.414
23.926,20.508,22.949,9.766,14.648
7.324,20.02,17.578,4.883,45.898
1.953,17.578,11.23,0,-11.23
22.949,20.02,10.254,2.441,-15.137
33.203,19.043,15.625,11.23,30.273
25.879,17.578,19.531,11.719,47.363
8.789,16.113,18.066,16.113,32.227
-8.789,15.137,19.043,16.113,21.484
14.16,16.602,25.879,8.301,28.32
30.273,15.137,28.809,18.066,48.34
11.719,12.207,31.738,20.02,26.367
-0.488,7.324,31.738,6.836,10.742
-11.719,5.859,30.273,1.953,-2.93
-0.488,11.719,35.156,4.395,-29.785
27.344,15.137,37.109,18.066,-9.766
20.02,15.137,34.668,11.719,31.25
6.348,17.09,34.18,7.324,33.691
4.883,17.578,27.344,4.395,41.992
15.137,16.602,27.832,-2.441,62.5
35.645,14.16,27.344,7.812,55.664
30.273,10.254,19.531,12.207,25.391
12.207,9.277,22.949,3.906,-6.836
-7.812,9.766,21.484,-12.207,10.742
-4.395,8.789,19.043,-7.812,14.648
17.09,7.324,15.625,9.766,13.672
11.23,5.859,14.16,10.254,3.418
0,7.324,17.09,5.859,-10.742
-13.672,9.766,18.555,3.418,25.879
-5.859,11.23,23.438,5.859,41.992
28.32,17.09,23.438,12.695,77.148
37.598,14.16,23.438,23.438,99.121
23.926,16.113,26.855,31.738,69.824
8.789,30.273,19.043,18.066,27.832
6.836,34.18,12.207,1.465,15.625
32.227,30.273,18.555,11.23,20.02
41.992,28.809,23.926,19.531,-16.602
22.461,29.297,25.879,17.09,-74.219
-5.859,25.879,26.367,10.254,-70.312
-0.977,23.926,33.691,1.953,-12.207
33.203,23.438,32.715,8.789,40.527
34.668,21.484,22.949,22.461,31.25
18.066,20.996,23.438,27.344,42.969
0.488,21.484,20.508,15.625,72.266
-5.859,23.438,14.16,-3.906,39.062
19.043,24.414,17.578,0.488,-32.227
30.273,22.461,19.043,13.672,-47.363
19.531,22.949,22.461,12.695,-35.645
5.859,21.484,24.902,6.836,23.438
-9.766,17.09,20.02,4.395,35.156
10.742,16.113,19.043,10.742,-16.602
31.738,17.09,23.926,20.02,-14.648
20.02,20.02,28.32,19.043,71.289
5.859,20.508,23.926,7.812,57.617
-3.418,18.066,24.902,5.859,23.438
10.254,19.043,28.32,11.719,32.227
29.297,21.484,26.855,10.742,42.969
23.438,22.461,30.762,11.719,26.367
6.348,20.996,29.297,13.184,-8.789
-5.371,16.602,18.066,8.301,-10.742
5.371,8.301,16.602,-0.488,-11.719
21.484,5.371,18.555,3.906,-3.418
13.672,10.254,20.508,8.789,12.207
1.465,10.254,22.949,4.395,-1.465
-17.09,6.836,14.648,-5.859,32.715
-7.324,3.418,8.301,-0.488,90.82
29.297,1.953,5.371,13.184,64.941
19.531,0.977,-0.488,13.672,38.574
-5.371,3.418,7.324,7.324,23.438
-9.766,4.395,8.301,1.953,-10.254
0,1.465,-0.488,5.859,36.133
33.691,2.93,-3.418,12.207,80.078
32.227,3.418,-4.395,15.137,-3.906
12.695,2.93,-2.441,13.672,-1.953
4.883,0.977,-8.789,6.348,23.438
5.371,1.465,-9.277,2.441,-13.672
28.32,2.93,-2.93,12.207,4.883
32.715,-0.488,-2.441,18.555,31.25
13.672,-1.465,-1.465,11.23,20.996
-0.488,0.977,2.441,2.93,32.227
-3.418,-0.488,2.93,0,8.789
13.672,-3.418,6.348,8.301,-33.203
20.02,0,5.859,14.648,12.695
8.789,4.883,9.766,1.953,28.32
-5.859,9.277,12.207,4.883,-9.766
-16.113,9.277,8.301,2.441,30.762
9.766,3.906,10.742,-9.766,52.246
24.414,5.859,8.301,4.883,41.992
5.371,8.789,12.207,12.207,33.691
-11.23,9.766,15.137,4.883,63.965
-20.508,11.719,15.137,0.977,69.336
3.418,11.23,25.391,15.137,74.707
27.344,9.766,26.855,36.133,75.195
29.785,8.301,25.391,34.668,42.48
12.207,10.742,23.438,24.902,-23.926
-12.207,12.207,21.973,11.719,-28.809
12.695,13.672,28.809,10.742,41.992
40.527,14.16,22.949,26.367,28.32
31.738,11.23,16.113,28.32,-21.484
18.066,12.695,15.137,19.531,22.461
-0.488,11.719,7.812,14.648,13.184
12.207,12.695,8.301,17.09,-21.484
43.945,12.207,10.254,22.461,55.176
34.18,9.277,9.766,20.02,36.621
10.254,14.16,14.16,12.207,-40.039
2.93,16.113,15.625,6.348,-34.668
13.184,20.02,19.043,8.301,10.742
37.109,18.555,18.066,17.578,12.207
28.32,13.672,19.531,24.414,41.992
11.23,15.625,15.137,21.484,53.223
0.977,12.695,9.766,7.324,-23.438
1.465,10.254,16.113,0.977,-18.555
34.668,11.23,18.555,10.742,18.555
34.18,13.672,17.09,17.578,-8.301
12.695,10.742,15.137,21.484,-14.648
-2.93,4.883,15.625,12.695,11.23
-2.441,5.371,19.531,2.93,-21.484
30.762,5.371,22.461,13.672,-60.059
36.621,3.418,21.973,23.438,-75.684
26.367,0.977,28.32,26.855,-20.508
10.742,0.977,27.344,14.16,8.789
4.395,3.418,23.438,7.812,-7.812
29.297,5.371,21.973,15.625,17.09
29.785,4.395,20.996,21.973,20.508
11.719,4.395,23.926,19.043,11.23
-3.906,3.906,14.16,3.906,1.465
-8.301,5.859,7.812,-0.488,42.969
17.578,10.254,9.277,6.348,86.914
35.645,4.395,-0.977,11.23,54.199
19.531,4.395,1.953,7.812,27.344
0,9.277,10.254,1.465,16.602
-6.348,11.23,9.277,-1.953,39.551
17.578,15.625,13.184,-0.488,-0.488
32.715,18.555,22.461,15.625,-23.926
20.508,18.555,29.297,26.855,38.574
8.301,17.09,26.367,23.438,72.266
4.395,14.648,22.949,10.742,40.527
26.855,11.719,22.949,7.324,44.434
39.551,6.348,15.137,18.555,7.324
22.949,5.859,14.648,24.902,-0.977
13.184,8.789,17.578,14.648,20.02
6.348,8.789,11.719,-0.977,1.953
9.277,9.766,13.184,3.418,48.828
33.203,6.836,19.043,23.438,66.895
30.762,5.859,23.926,29.785,8.301
14.648,4.883,22.949,21.973,-13.672
6.348,8.789,18.555,12.207,20.508
19.531,13.672,20.508,7.324,32.715
37.598,13.672,20.996,13.672,52.734
25.879,14.648,13.184,17.578,70.312
15.625,16.113,12.207,16.113,43.457
5.859,12.207,12.207,13.184,19.531
9.277,10.254,9.766,23.438,-4.395
33.691,11.23,7.324,26.367,-39.062
33.203,13.184,8.301,15.137,16.113
10.254,14.16,12.207,18.555,27.832
-6.836,10.254,7.324,9.277,-27.832
-7.324,6.836,7.324,-5.371,-20.508
20.02,5.371,11.23,4.883,-19.043
31.25,3.906,8.789,16.602,-9.277
17.578,2.93,11.719,13.184,19.043
2.441,0,12.695,9.277,32.227
0,-4.883,10.254,5.371,-32.715
31.25,-4.395,19.531,15.137,-20.508
38.574,-3.906,23.438,26.855,23.438
16.113,-3.418,20.02,23.438,49.316
0.488,-3.906,19.043,17.578,45.898
-4.883,0.977,16.602,15.137,16.602
22.949,4.395,19.531,18.555,-0.488
39.551,8.301,20.02,21.973,-1.465
30.762,19.531,14.16,20.996,35.156
35.156,20.996,21.484,28.809,27.344
15.137,10.254,42.48,22.949,35.645
15.137,9.766,48.828,18.555,43.945
32.715,15.625,43.945,30.273,-8.789
21.484,17.578,44.434,21.973,5.371
10.742,21.484,45.898,11.719,51.758
-1.953,23.926,44.434,5.371,33.203
14.16,25.391,42.969,3.906,57.617
38.574,23.926,36.133,11.23,46.387
36.133,23.926,23.926,11.23,74.707
24.414,25.391,18.066,15.137,25.391
2.441,22.461,21.484,11.719,-53.711
13.672,22.461,31.738,13.672,35.645
40.039,18.066,34.668,27.832,83.008
33.691,16.113,32.715,31.738,39.062
22.949,19.043,34.18,28.32,25.879
9.766,16.602,33.691,20.508,39.551
30.762,15.625,30.762,22.949,-3.418
61.035,17.09,29.785,28.809,37.109
39.062,13.672,29.297,29.297,49.805
20.02,15.137,29.785,28.809,15.625
3.906,18.066,30.273,14.648,36.621
12.207,19.043,36.621,14.648,56.152
46.387,18.066,36.621,29.785,36.133
41.504,19.043,38.086,34.18,-37.109
23.438,19.531,43.945,28.809,-9.277
3.906,15.625,39.551,12.695,-60.547
4.395,16.113,38.574,6.836,-70.312
30.273,16.113,41.992,9.277,32.227
35.645,14.16,42.48,10.254,56.641
17.09,13.184,48.828,10.254,52.246
-9.277,13.184,46.387,4.883,28.809
-11.23,11.719,45.41,6.348,16.113
21.484,15.625,50.781,12.695,44.434
29.297,15.625,51.758,20.02,41.504
10.742,13.672,51.27,20.996,-2.441
1.465,19.531,48.828,19.531,31.738
0.977,24.414,44.434,15.137,9.277
26.367,23.438,34.668,11.719,-25.879
38.574,23.438,31.738,22.461,-14.16
25.879,29.297,36.133,21.484,13.184
21.484,30.273,37.598,16.113,10.254
15.137,30.273,38.086,14.16,-2.93
26.855,29.297,45.898,15.625,53.711
42.969,26.367,44.922,20.02,59.57
31.738,25.879,44.434,22.461,48.34
8.789,22.461,45.898,23.926,50.781
-5.371,20.508,43.945,11.719,41.016
14.16,20.02,50.781,9.766,24.902
39.551,20.02,55.176,23.926,-7.812
32.715,21.973,52.734,32.227,-14.648
16.113,25.391,50.293,24.414,-2.93
0.977,27.344,52.734,10.254,30.273
8.301,26.855,59.082,14.648,27.832
34.18,24.414,60.547,20.02,-40.039
30.273,23.438,64.941,18.555,-64.453
14.16,25.879,69.824,16.602,-31.738
-0.488,26.367,64.941,8.789,-4.883
0,25.879,68.359,9.277,-15.137
28.32,25.391,63.477,17.09,-12.207
32.715,22.949,57.617,21.973,0.977
17.578,20.996,55.664,23.926,87.402
8.789,18.066,43.945,17.578,107.422
14.16,20.996,40.039,16.113,38.574
41.016,23.926,39.062,20.02,11.23
35.156,25.879,42.969,20.996,57.617
18.066,33.203,51.758,19.043,77.148
8.789,32.227,48.34,7.812,18.066
10.742,28.32,42.969,5.859,26.855
40.039,26.855,47.363,19.531,51.758
46.875,26.855,54.688,26.855,70.312
31.25,25.391,52.734,18.066,76.172
23.438,22.949,45.41,7.812,39.551
22.461,19.531,40.527,6.348,18.555
41.504,12.695,36.133,18.066,9.277
42.48,9.277,38.086,27.832,21.973
14.16,8.789,45.41,28.809,46.875
-1.953,8.301,44.434,21.484,10.254
-10.254,8.301,43.457,13.672,-18.555
2.93,5.859,46.387,20.508,4.883
20.02,3.906,44.434,19.531,-58.105
8.789,5.371,38.574,16.602,-68.848
-9.766,3.418,30.273,8.301,-1.953
-18.555,0.977,32.227,-4.395,41.016
4.883,5.859,34.668,1.953,21.484
23.438,8.789,28.809,15.137,19.043
14.16,7.324,24.902,14.16,41.016
4.395,7.324,29.785,6.836,10.742
-16.113,9.766,32.227,-1.465,25.879
-0.488,11.719,27.832,7.324,5.371
27.832,7.812,26.855,22.461,46.387
21.973,5.371,20.996,20.996,49.805
10.742,8.301,18.555,14.16,26.855
-9.766,5.859,17.09,-1.953,20.508
3.418,8.789,17.09,-0.977,14.648
34.18,16.113,24.414,11.23,20.996
22.949,17.578,28.809,10.254,2.441
8.789,17.578,30.273,5.859,25.879
-1.953,19.531,29.785,-4.395,47.363
3.418,20.996,36.621,-1.953,30.762
33.691,17.578,40.527,10.742,14.16
36.133,17.578,40.039,20.508,38.574
23.438,19.531,36.133,21.973,63.477
14.648,19.531,25.391,21.484,47.363
17.578,20.02,27.344,13.672,47.363
38.086,19.043,33.203,11.719,129.395
40.039,18.066,36.621,19.531,122.07
25.391,17.578,40.039,15.625,65.918
9.766,21.973,31.738,3.906,14.648
8.301,24.414,25.879,2.441,-13.184
38.086,20.996,21.973,8.301,8.301
40.527,20.508,23.438,17.578,11.719
10.742,22.461,26.855,19.043,2.93
-7.324,23.438,22.461,8.301,-25.391
-7.324,23.926,27.832,-4.395,-0.488
20.996,24.902,33.691,0,45.41
39.062,26.855,25.879,15.137,42.48
23.438,27.344,20.02,18.066,24.414
7.812,25.879,20.02,3.418,-49.805
1.465,26.855,24.414,-7.324,-1.465
18.555,28.809,23.926,3.418,56.152
35.156,29.785,21.973,13.672,-13.672
28.809,28.809,29.785,20.02,7.812
19.043,26.367,31.25,23.438,71.777
11.23,26.855,27.832,9.766,86.914
28.809,26.855,28.32,8.301,90.82
48.34,28.32,26.367,21.973,80.078
33.203,33.691,26.367,24.902,50.293
14.648,37.109,27.344,20.02,71.777
0,38.086,24.902,4.395,7.324
18.066,37.109,25.391,3.906,-38.086
42.48,34.668,27.832,14.648,22.949
24.902,37.109,23.926,16.602,8.789
11.719,40.039,19.043,16.113,2.93
3.418,34.668,18.555,10.742,-5.859
1.953,32.715,20.02,3.418,-6.836
23.926,30.273,15.625,10.254,28.32
20.996,28.32,12.207,14.16,22.949
4.395,29.297,18.555,9.766,56.641
-7.324,28.809,13.184,1.465,65.918
-2.441,26.855,11.719,8.789,1.953
24.414,23.438,20.996,24.414,15.625
21.973,21.973,24.414,30.762,52.734
11.23,20.02,26.367,34.18,27.832
-2.93,17.578,26.855,24.414,28.32
-4.395,15.625,25.391,10.254,11.23
21.973,14.16,17.09,16.113,13.184
26.367,14.16,10.254,22.949,16.602
18.066,14.16,17.09,22.949,-29.297
11.23,13.672,17.09,18.555,-55.176
7.812,15.625,16.602,12.207,-78.125
37.598,17.09,24.902,19.531,-20.996
47.852,16.602,25.879,31.738,49.805
20.996,17.578,24.414,29.297,33.203
-1.953,19.531,29.297,24.902,65.43
-4.395,17.09,32.715,19.043,11.719
20.996,18.066,35.645,12.207,-31.738
30.762,20.508,36.621,20.996,23.438
20.02,18.066,30.762,22.949,76.172
0.977,13.672,22.949,11.719,-5.859
-13.672,10.742,23.926,2.93,-29.785
9.766,8.789,24.414,4.395,50.781
26.367,7.324,23.926,12.207,22.949
12.695,7.324,27.344,16.602,-23.438
2.441,8.789,32.227,23.926,25.879
-4.883,5.859,34.668,27.832,58.594
17.578,10.254,32.227,28.809,3.418
36.621,19.531,30.273,27.344,28.32
25.879,21.484,29.297,30.762,6.836
22.461,18.555,31.738,41.504,3.906
12.207,17.578,24.414,24.414,14.648
30.273,18.555,18.066,24.414,-24.902
61.523,13.184,18.066,39.551,-12.695
40.527,7.812,20.996,26.855,20.996
16.602,9.766,25.879,13.672,-10.742
2.93,8.789,25.391,4.395,8.789
8.789,7.812,23.926,3.906,85.938
41.016,12.207,20.02,19.531,81.055
35.645,12.695,17.09,21.484,37.109
7.324,8.789,16.602,13.672,0
-9.766,12.207,20.996,6.836,-7.324
-7.324,15.625,24.414,0,52.734
20.996,10.742,20.02,9.277,85.449
24.414,10.254,20.02,14.16,81.543
1.953,9.766,23.438,4.883,66.406
-8.789,7.324,18.555,-1.465,-0.488
-8.301,5.859,20.02,-6.836,0
10.254,6.348,24.902,-2.441,20.508
18.066,9.766,24.414,5.859,34.18
5.859,13.672,26.367,4.395,57.617
-10.254,16.113,29.785,-0.977,75.684
-17.578,19.531,31.25,-1.465,45.41
17.09,21.484,31.25,7.812,53.711
35.156,22.461,25.391,12.695,22.461
18.555,21.484,21.973,10.742,-12.695
10.254,20.02,20.02,12.207,63.965
6.836,17.578,16.113,10.254,85.938
29.297,13.672,9.277,11.719,30.762
46.387,12.695,7.324,19.043,-9.277
27.832,17.578,16.113,22.949,13.184
8.789,16.602,16.602,25.391,-10.254
-1.465,15.137,18.066,11.23,-5.371
15.137,19.531,23.438,8.789,37.598
32.227,18.555,24.902,20.02,15.625
25.391,14.648,27.344,20.996,-21.973
11.23,15.137,26.367,20.996,-6.348
-10.742,12.695,22.949,12.207,31.25
9.277,8.789,26.855,1.953,-11.23
32.715,10.742,32.227,8.789,6.836
13.672,8.789,34.668,9.766,18.555
8.789,11.719,36.133,14.648,-69.824
7.324,17.09,33.691,10.254,-0.488
12.695,19.043,31.738,5.371,18.555
36.621,20.508,33.203,13.672,-43.457
24.414,21.973,31.738,17.578,51.758
9.277,19.043,22.949,10.742,55.176
-7.324,19.531,17.09,-4.883,-6.348
-5.371,20.508,18.066,-1.953,32.227
24.902,14.648,17.09,10.742,63.477
17.09,13.184,17.09,9.277,79.59
2.441,15.137,14.648,3.418,71.289
-9.277,15.625,8.301,-6.348,4.395
-5.859,14.16,10.254,-6.348,-3.906
25.879,12.695,13.184,5.371,62.012
31.738,17.09,15.137,8.301,72.754
8.789,17.09,19.043,7.812,54.199
-9.766,18.066,20.02,0,48.828
-0.488,20.508,21.973,-10.254,48.828
27.832,17.09,25.879,4.395,42.48
30.762,15.625,27.832,15.137,17.09
12.695,15.625,27.832,11.23,7.324
-5.371,14.16,29.785,5.859,13.184
-3.418,17.09,36.133,-1.465,13.672
22.949,18.066,35.645,11.719,62.988
31.25,17.09,28.809,18.555,65.918
15.137,17.09,29.785,5.371,26.855
-6.348,12.207,26.367,0,8.301
-8.301,10.742,21.484,7.812,45.41
15.625,9.766,17.578,8.789,71.289
19.043,9.277,17.578,1.465,32.227
7.812,10.742,21.973,2.93,41.016
-7.812,8.301,14.648,-0.977,-39.062
-19.043,10.742,12.207,-6.348,-20.996
9.277,13.672,15.625,5.859,76.66
22.949,15.137,11.719,11.719,68.848
15.137,20.02,16.602,7.324,65.918
0.488,16.113,22.949,12.695,32.715
-6.348,8.789,24.414,11.23,-8.789
21.973,13.184,22.461,6.836,-21.973
29.297,15.625,21.484,6.348,15.625
16.602,14.648,21.973,3.906,29.297
12.695,15.137,17.09,-0.488,-14.648
0.488,20.508,15.625,-3.906,-11.23
4.883,20.02,20.508,-0.488,-9.766
22.461,15.625,21.484,5.859,-10.742
16.602,18.555,18.066,4.395,-17.578
4.883,19.531,18.066,2.441,-6.836
-13.672,18.555,18.555,-2.93,32.227
-3.906,18.066,14.648,-7.812,-20.02
29.297,16.602,7.324,0.488,0.977
26.367,19.531,10.742,4.395,34.668
18.066,22.461,20.508,9.277,10.254
2.441,22.949,18.555,7.812,-18.555
3.418,22.461,20.996,2.441,1.465
31.738,23.438,33.203,7.324,35.645
35.645,23.926,33.691,13.672,-22.949
23.926,18.555,24.902,12.695,-4.883
6.836,19.531,14.648,-0.977,44.922
7.812,22.949,11.719,-3.418,0.488
34.18,21.973,16.113,10.254,9.277
36.621,20.996,22.949,21.484,47.363
18.066,24.902,27.344,15.625,43.457
8.301,24.414,27.344,7.812,24.414
7.812,21.484,30.762,0.488,-10.254
30.273,20.508,29.297,8.301,-26.367
41.016,21.484,24.902,23.926,22.461
29.297,24.902,20.996,28.32,67.383
12.695,20.508,18.555,17.578,50.293
7.812,17.578,10.742,10.742,-11.719
32.715,22.949,7.812,17.578,-21.484
40.527,23.926,12.207,23.926,-34.18
26.367,21.484,14.16,29.297,-30.273
11.719,20.996,14.648,21.484,-1.465
-7.324,21.484,14.16,13.672,20.02
21.973,17.578,14.16,14.648,22.461
36.621,13.184,19.043,14.648,1.465
9.766,13.672,27.344,13.184,34.668
4.395,16.113,25.879,13.672,92.285
-4.883,17.09,20.02,3.906,28.32
12.695,14.648,20.996,1.465,-5.371
35.156,15.625,21.973,20.02,58.594
24.902,19.043,16.602,21.973,37.109
10.742,16.602,13.184,9.766,1.465
-6.836,13.184,11.23,3.418,24.902
16.602,14.648,9.277,11.719,6.348
41.504,13.184,6.836,21.973,4.883
26.855,14.16,7.324,20.508,39.062
15.625,15.625,7.324,21.484,45.41
0.977,13.184,-2.441,10.742,-5.859
12.207,10.254,-2.441,7.324,-69.824
35.645,11.23,6.836,19.043,-17.578
36.133,16.113,9.277,32.227,11.719
23.438,13.672,8.789,33.203,-11.719
0.488,13.672,7.812,17.09,12.695
6.836,15.137,11.23,16.113,32.715
41.016,12.207,6.836,36.133,11.23
43.457,11.23,4.395,33.691,-23.438
21.484,10.254,12.207,24.902,-12.207
7.324,7.812,0.488,16.113,-9.277
4.395,12.207,-5.371,15.625,-41.504
33.691,12.695,3.418,17.578,-3.906
44.434,11.719,5.371,16.113,13.184
22.949,12.207,3.906,12.695,44.434
6.836,9.277,0,4.395,40.039
-3.906,4.883,-5.371,-1.465,-5.859
17.09,4.395,-8.301,4.395,32.227
31.25,7.812,-8.301,11.23,48.34
17.578,9.766,-5.859,10.742,14.16
9.766,14.648,-6.348,9.766,19.531
6.836,18.555,-0.977,6.348,44.434
26.855,16.602,2.93,10.254,50.293
40.039,12.695,3.906,19.531,56.152
22.461,10.254,11.719,18.066,40.039
7.812,12.695,13.184,10.742,45.41
1.953,13.184,13.672,11.23,13.672
23.438,14.16,15.625,16.113,4.883
39.062,18.555,11.23,19.531,33.203
34.18,19.043,3.906,20.02,20.508
23.926,17.578,4.395,17.09,17.09
4.395,19.531,6.836,16.602,5.859
20.508,19.043,7.324,18.555,-5.859
45.898,18.555,8.301,22.461,46.387
39.551,23.438,13.184,24.902,24.902
23.926,23.438,18.555,21.973,44.434
4.883,22.949,16.602,14.648,106.445
18.555,22.461,17.578,15.625,89.844
37.598,18.066,22.949,24.414,65.918
27.832,19.043,21.973,23.438,59.57
17.09,18.066,17.09,18.555,19.043
0.977,14.648,15.137,17.09,-43.457
14.648,19.043,16.602,19.531,-34.668
41.504,19.531,22.949,26.367,20.02
39.551,17.578,29.297,24.902,40.527
24.414,16.113,28.32,16.602,46.875
-3.906,13.672,21.484,11.719,27.344
3.906,13.672,17.09,9.277,5.859
32.227,15.625,14.648,13.184,-13.184
24.902,17.578,18.066,15.137,22.461
15.625,16.602,21.484,12.207,56.152
4.883,16.113,13.672,6.348,-26.855
4.883,16.113,9.277,4.883,-28.32
36.621,14.16,11.23,9.766,10.742
41.504,8.789,9.766,10.254,-27.832
24.414,4.883,14.16,14.16,-7.812
16.113,3.906,14.648,20.996,-1.953
6.836,5.859,12.207,16.602,11.719
28.32,6.836,17.578,19.043,25.391
42.48,12.695,24.902,27.832,34.18
24.414,19.531,22.949,26.855,30.762
7.812,17.09,18.066,18.066,5.859
1.465,17.578,17.578,16.113,2.441
20.508,20.508,20.508,18.066,21.484
32.715,18.555,20.508,27.344,34.18
23.926,19.043,17.578,29.785,-7.812
8.789,19.043,15.137,16.113,-20.02
-1.953,19.043,17.09,3.418,6.348
18.555,17.09,18.066,5.859,58.105
36.133,13.184,15.137,21.484,54.688
19.043,13.672,19.043,18.555,51.758
4.395,13.672,19.531,7.324,22.461
-12.695,12.207,18.555,-3.418,30.762
2.441,11.719,15.625,-2.93,38.574
31.738,11.719,10.742,12.207,20.508
22.949,11.719,13.184,13.672,46.875
0.977,12.207,14.648,8.789,60.059
-13.672,14.16,12.207,-1.465,68.359
2.441,19.043,13.672,4.395,68.359
32.227,19.531,14.16,20.508,76.172
29.785,19.531,13.672,20.02,81.543
13.184,19.531,12.695,16.113,69.824
0,19.043,9.766,6.836,35.645
9.277,20.02,5.859,13.184,29.785
41.992,22.461,9.766,22.949,-1.953
36.621,26.367,15.625,21.973,-28.809
12.207,28.32,15.625,17.09,-54.199
7.324,34.668,10.742,12.207,-10.742
22.461,35.645,5.859,22.461,48.34
38.574,25.879,7.324,20.508,30.273
22.949,19.531,15.137,9.277,26.367
-9.766,15.625,20.508,-0.488,-21.484
-27.344,11.719,19.531,-4.883,-15.625
-18.555,9.277,26.367,-1.465,24.902
6.836,7.812,36.133,-0.977,47.852
5.859,8.789,38.574,2.441,19.043
-1.953,7.324,36.133,9.766,24.902
-5.859,5.371,30.762,7.324,66.406
-21.484,1.465,25.879,-3.418,25.391
0.977,1.953,28.32,2.441,30.762
19.531,0.977,26.855,9.766,19.531
6.348,0.488,27.832,11.23,-6.348
-3.418,4.883,33.691,6.836,-22.461
-10.254,7.324,34.668,5.859,17.578
8.789,6.836,36.133,18.066,55.176
22.461,7.324,40.527,19.531,12.695
4.883,11.719,38.086,13.184,13.184
-3.906,12.207,29.785,12.207,29.785
-12.695,7.324,28.32,-0.488,-20.996
11.23,5.371,24.902,-2.441,-39.062
33.691,11.719,20.02,10.254,-31.738
14.648,10.742,23.926,13.184,-0.488
2.441,7.324,21.484,9.277,20.996
-13.184,7.812,20.508,4.395,-20.508
-3.906,12.695,16.602,9.277,-37.109
21.973,16.602,11.23,17.09,-4.883
18.555,16.113,17.09,17.578,-20.02
10.254,15.137,16.113,18.066,-17.09
-7.324,12.695,18.066,16.602,72.266
-3.906,11.23,21.484,17.09,99.121
21.973,10.254,20.02,20.508,60.547
20.508,13.672,19.531,23.438,63.965
11.23,10.742,20.996,18.555,22.949
-1.953,5.859,21.973,12.207,-27.832
5.859,9.766,24.414,17.578,41.016
29.297,14.648,22.949,24.414,6.348
26.367,17.09,27.832,23.926,-27.832
17.578,19.531,36.621,22.949,0.977
7.324,20.508,34.668,20.02,10.254
9.766,18.066,30.762,16.602,35.156
33.691,18.066,31.25,18.555,64.941
36.621,18.555,28.809,25.391,59.57
22.461,22.949,24.414,27.344,34.18
7.812,21.973,20.02,12.207,49.316
1.465,15.625,17.578,3.418,27.344
29.785,15.137,26.855,12.207,3.906
40.039,16.602,28.809,15.137,17.09
19.531,15.137,25.391,21.484,-12.207
7.324,12.207,27.832,15.137,-5.371
3.906,16.113,26.367,5.859,6.836
31.25,18.066,23.438,15.625,10.742
38.574,16.113,22.461,20.508,10.742
19.531,20.508,25.879,18.555,8.789
3.418,20.508,20.02,14.16,21.484
-4.395,19.531,13.184,16.602,10.254
24.414,16.602,20.02,21.484,-16.602
40.527,12.207,30.273,20.02,-39.551
32.715,15.625,30.762,20.996,-8.301
9.766,15.137,29.297,13.184,5.371
-4.395,13.672,26.855,-0.977,37.109
22.461,15.137,25.879,2.441,54.688
44.922,17.09,26.367,12.695,25.879
28.809,17.578,20.996,10.742,10.254
10.742,14.16,19.043,9.277,21.973
-2.441,10.742,21.484,7.812,18.555
6.836,12.695,22.949,1.465,10.742
29.297,13.184,24.902,13.672,31.25
26.855,14.16,31.25,18.066,5.371
14.648,16.113,37.598,20.996,-19.531
-0.977,15.137,34.18,18.066,-20.02
11.23,12.207,29.785,16.113,-34.18
35.156,16.602,33.203,23.438,4.883
29.785,18.555,36.621,11.719,18.555
17.09,13.672,28.809,14.648,45.41
4.395,10.742,23.438,18.555,61.523
15.137,7.324,26.855,8.789,19.043
39.062,6.836,35.156,14.648,52.734
38.086,12.207,41.504,28.809,22.949
23.438,16.602,45.41,25.879,-3.906
1.953,13.184,44.434,7.812,82.031
9.277,16.113,39.551,10.254,69.336
33.691,18.555,38.574,13.184,-14.16
26.367,15.137,34.18,11.719,-0.977
11.719,13.184,25.879,11.23,-11.23
-1.465,13.184,25.391,-2.441,-5.859
-3.906,16.113,21.973,-5.371,37.598
17.09,16.602,15.625,5.371,-4.395
19.531,16.602,17.578,10.742,21.484
-0.488,11.719,13.184,8.789,89.355
-13.672,6.836,6.836,-1.465,69.824
-15.137,5.859,11.719,-7.324,68.359
15.137,2.93,5.371,-0.977,21.484
23.438,0.977,3.906,6.348,-28.809
6.836,2.93,10.254,9.277,-16.113
-1.465,1.953,7.324,7.812,-3.906
-11.23,0,12.207,-1.953,-30.762
12.695,0.977,19.043,7.812,-4.883
35.156,1.465,20.508,21.484,45.41
17.09,1.953,20.508,15.137,-1.465
-3.906,1.465,14.648,15.625,-10.742
-8.789,6.348,9.766,16.113,0
17.578,12.207,12.207,19.531,-8.301
36.133,13.672,15.137,25.879,-28.809
26.855,15.625,16.113,22.949,32.715
22.461,19.531,12.207,15.137,58.105
10.742,22.461,6.348,12.695,27.832
17.578,20.996,-0.977,12.695,46.875
35.156,19.531,-0.977,21.973,-2.93
28.32,20.508,2.441,22.949,3.418
13.184,21.484,-3.906,11.23,-15.625
0.488,23.926,-6.836,8.789,-26.367
16.602,18.066,1.465,16.602,-23.926
42.969,13.672,18.555,20.02,-25.879
32.715,17.09,29.297,20.996,11.23
10.254,17.09,27.344,12.207,20.996
-4.883,18.555,24.414,-0.488,76.172
3.906,17.09,23.438,7.812,75.684
33.203,16.113,23.926,19.043,59.57
35.156,18.555,20.508,13.672,43.945
14.16,14.16,23.926,8.789,37.109
-3.906,13.184,25.391,13.184,39.062
-1.465,8.789,17.09,17.09,9.277
28.809,5.371,11.23,17.09,9.277
33.203,10.254,13.184,17.578,-40.527
24.414,15.625,17.578,17.09,-16.113
17.09,20.02,10.742,12.695,80.078
21.484,18.555,4.883,14.648,25.879
54.199,19.043,6.836,25.879,-25.391
60.059,21.973,12.207,30.273,30.762
25.879,20.508,13.184,22.461,61.035
6.836,16.113,7.812,13.672,4.395
5.371,13.672,11.23,11.23,-9.766
29.297,11.23,19.531,6.836,31.25
34.668,8.789,18.555,2.441,35.645
15.137,11.719,17.09,5.371,23.438
2.93,15.137,15.137,-0.488,-43.457
-11.23,12.695,18.066,-8.789,15.625
10.254,7.324,16.602,-1.465,82.52
30.273,6.348,17.09,5.371,21.973
18.555,11.23,24.902,10.742,23.926
11.23,15.625,22.461,13.184,53.711
-5.371,16.602,19.531,5.371,-0.488
20.996,15.137,16.602,3.418,-19.531
41.504,17.578,13.184,9.277,6.836
15.137,18.555,17.578,14.648,34.668
9.766,17.09,16.602,8.789,51.758
1.953,15.137,13.184,0,25.879
16.602,14.16,13.184,6.836,-29.785
48.34,15.137,20.02,16.602,-14.16
36.621,11.719,23.926,18.555,18.555
12.207,6.348,19.531,15.137,-34.18
2.93,4.395,21.973,7.324,-51.758
24.414,7.812,24.414,11.23,-18.555
45.898,10.254,28.32,20.508,27.832
34.668,10.254,33.203,23.438,33.203
22.461,9.277,30.273,23.438,22.461
8.301,9.766,27.344,10.742,60.059
12.207,13.184,27.832,10.742,55.664
36.621,11.23,27.344,19.043,13.184
40.527,8.301,27.344,8.301,-4.883
30.273,3.906,30.762,0.977,-4.883
14.16,5.371,32.715,-7.812,11.23
15.625,8.789,32.227,-7.324,-14.16
37.598,10.742,36.133,14.16,-3.418
38.574,12.695,37.109,21.973,27.832
26.367,12.207,31.25,14.16,28.809
14.16,7.324,26.367,9.277,47.363
7.812,2.93,21.484,9.277,33.203
26.367,4.883,29.297,13.672,19.531
32.227,8.789,38.574,17.09,25.879
19.531,13.184,30.273,17.578,26.367
5.371,11.719,20.996,9.277,75.684
-1.953,9.766,20.996,-0.977,62.988
28.809,9.766,20.02,4.883,27.832
35.645,13.672,15.137,14.648,99.609
19.043,13.672,16.602,13.184,95.215
12.207,5.859,15.137,16.113,-0.488
-5.371,8.301,14.648,5.371,-75.684
9.277,7.812,21.973,3.906,6.836
26.367,4.883,22.949,14.648,72.266
10.254,8.789,21.973,13.184,31.25
-1.953,8.301,21.484,7.812,25.879
-12.207,5.371,21.484,1.465,-3.906
5.371,3.418,19.531,4.883,-67.871
35.156,6.348,20.996,8.789,-74.219
25.391,9.277,24.902,15.137,36.133
3.906,8.789,26.367,18.066,105.957
-6.348,7.324,25.879,12.695,13.672
3.906,3.906,27.832,13.184,5.859
20.02,3.906,29.297,21.973,-10.254
13.184,3.906,24.902,28.809,-3.418
2.441,-1.465,28.32,20.508,77.637
-14.648,-3.906,30.762,7.324,99.609
-1.465,-5.371,24.902,12.207,51.758
31.25,-7.324,29.297,17.09,39.551
29.297,-6.348,32.227,12.207,50.293
14.648,-4.883,25.879,7.812,35.645
-0.488,-1.953,18.555,-1.465,74.707
6.348,0.977,13.672,2.441,53.223
31.738,3.418,11.719,19.531,25.879
29.785,8.301,14.16,30.762,13.672
15.625,10.254,14.16,25.879,-22.461
9.766,10.254,9.766,14.648,-48.34
11.23,10.742,12.207,11.23,-55.664
35.645,11.23,20.508,18.066,14.648
38.574,10.742,25.879,23.438,78.613
15.625,13.672,21.973,22.461,43.945
5.371,13.672,15.137,16.113,20.996
0.488,9.766,20.508,15.625,58.594
21.484,10.254,23.926,19.531,62.012
38.574,6.836,20.02,23.926,14.16
29.785,2.441,13.672,22.949,-29.297
4.395,0,13.672,11.719,17.578
-6.348,1.465,19.043,6.348,100.098
23.438,2.93,19.043,14.648,62.5
31.738,7.812,20.996,15.137,-6.348
6.348,13.184,24.414,8.301,7.812
-1.953,19.043,15.625,10.742,30.273
5.859,20.508,9.277,12.207,67.871
17.09,12.207,17.09,18.066,-1.465
20.508,9.766,29.297,20.02,5.859
10.742,11.23,32.227,8.789,82.031
3.906,11.23,23.926,6.348,51.27
-14.648,10.742,19.043,-8.301,0
0.488,10.742,17.09,-7.812,-27.832
19.043,9.277,17.578,7.324,50.293
-0.977,7.324,15.137,5.859,46.387
-9.277,8.301,9.277,4.395,-13.184
-18.555,11.719,12.207,-8.301,0.977
-1.465,12.695,15.137,-4.395,41.016
34.668,10.254,20.996,14.16,-16.113
24.414,8.789,26.855,8.301,-20.508
2.93,6.348,23.438,10.254,-2.93
-5.371,7.324,19.531,8.301,-1.465
5.859,7.324,17.578,1.465,30.762
29.297,6.836,20.508,10.254,17.578
27.344,8.301,25.391,17.578,26.855
12.695,10.742,20.996,19.531,-19.531
-2.441,10.254,18.555,10.254,-14.648
8.789,9.766,18.555,6.836,25.391
39.062,10.742,20.02,10.254,-1.953
34.668,15.625,31.738,13.184,61.523
17.09,19.043,29.785,13.184,83.496
2.441,16.602,26.855,14.648,65.918
2.93,16.113,26.367,4.395,33.203
25.391,17.578,27.344,-0.977,-6.348
37.598,16.602,33.691,6.836,12.695
25.391,13.672,29.297,9.277,8.301
-0.977,14.16,23.438,-0.488,-11.719
-5.859,14.16,19.531,-12.695,-14.16
32.227,16.113,20.02,3.906,-39.062
39.551,16.602,23.926,14.16,-31.25
11.23,11.719,27.344,13.672,19.043
-0.488,7.324,20.996,7.812,29.785
-7.812,8.301,13.184,-9.766,-13.672
14.16,11.23,14.16,-0.977,-37.109
30.762,12.207,24.902,8.789,0.488
14.16,15.137,31.25,15.137,73.242
0.488,14.648,25.391,16.602,43.945
-8.789,14.648,27.832,9.766,-6.348
11.719,19.531,34.668,22.949,47.363
31.738,21.973,37.109,26.855,29.785
21.973,21.973,32.227,16.113,24.902
9.277,18.555,25.879,8.789,29.785
-2.441,16.113,31.738,5.859,53.711
17.09,19.043,28.809,10.742,65.43
31.25,24.414,28.809,21.973,71.289
16.113,24.414,29.785,17.09,56.152
24.902,28.32,18.066,16.602,9.277
23.438,28.32,24.414,26.367,9.277
8.789,19.043,32.715,9.277,-2.441
15.137,11.23,35.645,4.395,26.855
2.441,7.812,39.551,8.301,10.254
-9.277,7.324,39.551,6.836,5.371
-23.438,5.371,49.805,-4.883,76.172
-21.973,3.906,54.199,-19.531,76.172
3.418,1.953,55.176,0.488,33.691
3.906,-0.488,64.453,4.883,53.223
-19.531,0.977,69.336,-3.906,51.758
-33.203,3.906,61.035,-7.812,5.371
-16.113,6.348,55.664,-7.812,10.254
11.719,7.812,59.082,1.953,57.129
11.719,5.371,58.594,10.254,-8.789
-1.953,7.324,56.641,17.578,-22.949
-17.578,8.789,53.223,2.441,32.227
-16.113,10.254,46.387,-12.695,0.977
16.113,14.16,49.316,4.883,4.395
24.414,14.16,56.641,16.602,46.387
12.695,12.695,49.316,9.766,-3.418
-9.766,13.672,40.039,7.324,-51.27
-18.555,13.184,39.062,13.672,-6.836
14.648,13.184,39.062,7.812,47.363
28.32,14.16,41.504,4.883,23.438
7.812,15.137,40.039,13.184,6.348
-9.277,16.113,31.738,7.324,4.395
-9.766,17.09,31.25,0.488,3.418
19.043,16.113,38.574,3.906,-7.324
30.273,13.672,41.504,12.207,21.484
21.484,12.695,33.203,15.625,46.875
7.324,14.16,27.832,10.742,-5.371
-11.23,16.113,36.133,5.371,2.441
20.508,15.625,38.086,8.789,65.918
38.574,16.602,35.645,16.602,41.016
15.625,19.531,36.621,16.602,-31.25
6.348,20.508,40.527,7.812,-28.32
-1.953,21.973,44.434,4.395,9.277
20.02,20.508,39.551,17.09,20.508
37.598,14.16,35.156,20.996,31.738
24.414,11.23,32.715,15.137,69.336
17.09,12.695,30.762,16.113,62.988
4.395,11.23,28.32,13.672,18.066
18.555,8.789,29.297,13.184,0.488
42.969,7.812,33.691,25.879,1.465
30.273,7.812,39.551,31.738,0
12.207,8.789,41.504,23.438,22.461
-0.977,10.254,38.086,11.719,30.273
6.836,11.719,32.715,19.043,-0.977
26.855,12.695,35.645,29.297,39.062
22.461,12.695,35.156,23.438,56.152
14.648,10.742,27.832,22.461,2.441
-5.371,9.766,25.879,15.625,26.367
2.93,12.207,28.32,10.254,62.988
41.992,14.648,33.203,27.832,20.02
42.48,11.719,36.621,30.273,10.742
29.297,11.719,35.156,20.996,-9.277
14.648,13.184,36.133,12.695,-60.547
-2.441,18.066,40.039,9.766,-31.25
18.555,20.508,40.527,19.043,22.949
23.438,18.555,39.551,20.02,39.062
5.859,18.555,38.086,24.902,48.828
-7.324,18.555,36.133,18.555,-2.93
-1.465,19.531,33.691,15.625,5.859
39.551,22.461,29.297,29.297,-12.695
38.574,22.949,29.297,29.785,-12.207
17.578,19.043,28.809,27.344,28.32
9.277,12.695,32.227,14.648,7.324
3.418,8.301,32.227,10.254,5.371
28.809,7.812,21.973,26.367,0.488
43.945,10.742,25.391,23.438,-60.059
28.32,15.137,32.227,15.137,-17.09
3.906,13.184,24.902,9.766,31.738
-15.137,9.766,24.902,0,-18.555
7.812,8.301,28.809,4.883,-3.418
24.902,11.23,32.715,13.184,30.762
7.324,14.648,28.809,14.16,4.883
-9.766,11.719,22.949,9.766,14.648
-9.277,9.766,20.02,1.953,30.762
9.277,10.742,17.578,16.113,7.324
19.043,12.207,24.414,23.438,43.457
10.742,15.625,27.344,8.301,-16.602
-2.93,14.16,23.438,5.371,-18.066
-25.391,11.23,15.137,0,36.133
-5.371,10.254,8.789,-4.883,2.441
24.414,11.719,11.23,6.348,-18.555
16.602,16.602,12.695,12.695,-1.953
8.301,16.113,11.719,12.695,0
-5.859,19.043,11.719,3.418,17.578
-5.371,19.043,12.695,0.977,87.891
23.926,15.137,15.137,19.043,44.922
16.113,14.648,18.555,28.32,24.414
-7.324,15.625,17.578,21.973,71.777
-18.066,16.602,15.137,11.719,76.172
-4.395,13.672,15.137,9.277,40.527
31.738,11.719,17.578,13.184,-15.137
36.621,13.672,21.973,10.742,-14.16
22.949,15.625,20.508,13.672,42.48
4.883,14.16,18.066,18.066,-24.414
1.465,12.695,15.625,10.254,-60.059
26.367,11.719,13.672,9.766,-11.719
25.879,9.766,12.695,20.996,9.277
9.766,11.719,14.648,28.809,4.395
-1.465,11.23,19.043,19.531,-8.301
-1.953,11.23,20.02,7.812,1.465
30.273,13.672,19.043,22.461,40.527
32.715,15.625,17.09,31.25,1.953
21.484,17.09,16.113,20.02,23.438
15.625,15.625,12.695,7.324,53.711
-6.348,15.625,7.324,-3.418,12.695
4.395,15.625,13.184,9.766,16.602
20.02,13.672,19.043,18.066,20.02
11.23,15.625,16.113,15.625,10.254
-4.883,14.648,12.695,19.531,-1.953
-11.23,11.719,6.836,7.812,-21.973
6.348,11.719,6.348,15.137,-43.457
17.09,15.625,15.625,26.855,33.203
8.789,18.066,18.066,21.484,33.203
0.977,15.137,15.137,8.301,-11.23
-11.23,14.16,12.207,-6.836,16.602
8.301,12.207,15.625,-1.953,7.324
30.762,12.695,23.438,6.348,25.879
14.648,13.184,16.602,6.836,14.16
-1.465,7.812,14.16,5.371,4.395
-8.301,7.812,17.578,2.93,65.43
7.812,7.324,14.16,6.348,53.223
30.762,7.324,15.137,14.648,0.488
19.531,14.16,15.625,17.09,16.602
-2.441,15.625,8.789,10.254,-18.555
-16.602,14.648,9.766,2.441,-19.043
-9.277,14.16,9.766,5.371,14.648
17.578,13.184,9.766,5.859,25.879
24.414,16.602,12.695,8.301,59.082
-0.488,15.625,8.789,6.348,70.801
-18.066,7.812,9.277,-3.906,126.953
1.953,1.465,8.789,-2.93,61.523
24.414,2.93,14.16,11.23,-22.461
19.043,2.93,19.043,21.973,16.602
8.301,0.488,16.602,13.184,31.25
-8.301,3.418,20.02,0.977,20.02
-7.324,8.789,25.391,-6.348,-4.883
22.461,12.207,23.438,1.465,-6.348
28.809,16.113,20.508,4.395,21.973
10.742,18.555,18.066,3.906,34.18
3.418,19.531,14.16,5.371,-8.789
2.93,19.531,16.602,3.418,35.645
26.855,20.02,23.438,13.672,62.012
46.387,21.973,31.738,21.973,31.25
24.414,22.461,37.109,26.367,18.555
6.836,24.414,32.227,25.391,-16.602
6.836,23.438,25.391,17.578,-18.555
26.367,23.438,21.973,16.602,20.996
32.227,26.855,23.926,26.367,43.457
20.02,29.297,24.414,24.414,28.809
7.324,24.902,20.508,12.695,9.277
0,22.461,22.949,13.672,4.883
16.602,22.949,21.484,13.184,-19.531
39.062,23.926,17.09,22.461,-57.129
29.297,23.438,14.648,24.902,-29.297
8.789,17.578,14.16,10.742,2.93
4.395,15.137,15.625,10.742,-4.883
19.531,11.719,14.648,14.648,-13.184
37.598,12.695,15.625,32.715,26.367
34.18,16.602,18.555,36.621,13.184
16.113,17.578,20.02,24.902,17.09
6.348,19.043,21.484,14.648,49.805
11.719,16.602,18.555,6.836,46.387
17.09,14.648,17.09,13.184,76.172
20.996,16.113,22.461,14.648,53.223
15.137,17.09,21.484,14.16,13.672
-9.766,14.648,21.484,9.277,34.668
-4.883,13.672,22.949,13.672,42.48
29.785,13.672,28.809,25.879,47.363
32.715,13.672,28.32,28.809,-3.906
12.207,12.695,23.926,20.02,-25.391
-4.395,11.719,29.297,9.766,-11.23
1.465,17.09,24.902,7.324,-7.812
30.762,19.043,22.461,11.23,39.551
30.762,22.461,29.297,14.648,23.438
5.371,23.438,26.855,12.695,-1.953
-10.254,23.926,20.996,1.465,16.602
-8.789,22.461,18.555,6.836,52.734
15.137,21.484,15.625,12.695,59.57
21.973,24.414,12.207,1.465,24.414
9.277,22.461,8.301,-6.836,16.602
-10.742,23.438,3.418,-15.625,66.406
-23.926,22.949,1.465,-13.184,74.219
5.859,21.484,0.488,-3.418,66.895
14.16,22.949,9.766,7.812,53.711
1.465,24.902,20.02,5.859,16.113
-7.324,22.461,20.02,-7.812,12.207
-15.625,20.02,17.09,-12.207,72.754
11.23,18.066,16.113,-13.672,15.625
24.414,18.555,20.996,-5.371,-35.645
15.625,21.484,18.066,6.348,-7.812
8.789,20.508,15.137,2.441,10.254
-3.906,19.531,14.16,-3.418,1.465
14.648,20.996,15.625,0.977,-22.949
40.039,22.949,22.461,13.184,-23.926
30.273,21.484,19.531,15.625,-6.348
25.391,20.996,12.207,-0.488,22.949
8.789,17.578,11.719,-3.906,-4.883
15.137,14.16,15.625,-0.488,-29.297
44.434,14.648,14.16,9.766,-20.02
37.109,14.16,17.09,19.043,-3.418
18.066,14.16,21.484,11.719,8.301
2.441,16.602,20.996,2.93,5.859
12.695,17.09,18.555,-4.395,3.906
39.551,19.531,21.973,2.441,31.25
20.996,22.461,25.879,12.695,61.035
3.418,18.555,22.461,6.348,39.551
-7.812,18.555,24.414,-6.348,79.59
1.953,23.438,26.367,-13.672,118.164
29.297,29.297,31.25,-3.418,72.754
28.809,31.738,34.18,5.371,37.109
12.207,25.391,31.25,3.418,37.109
-8.301,19.043,26.855,2.441,9.766
0.488,18.066,22.949,6.836,-10.742
36.621,20.508,28.32,9.277,-1.953
44.922,20.996,26.855,18.555,24.902
37.109,18.555,16.602,23.438,55.664
26.367,19.043,14.648,11.719,71.289
21.484,21.484,20.996,18.066,48.828
47.852,21.484,25.879,31.738,27.832
51.758,21.973,31.25,33.691,47.852
34.668,22.949,30.762,33.203,19.531
17.09,23.438,26.367,20.508,22.461
7.812,20.996,20.996,19.531,58.594
34.18,18.066,18.066,26.367,-6.348
40.527,19.531,24.902,18.066,32.715
24.414,21.484,20.02,12.695,145.508
13.184,21.484,16.602,8.301,75.684
1.953,20.996,28.809,6.836,19.531
17.09,21.484,34.668,17.09,27.832
32.715,19.043,28.32,30.762,-14.648
24.902,15.137,30.762,22.949,-14.648
10.742,14.648,32.715,9.277,9.766
-3.906,16.113,31.738,12.695,15.625
14.648,15.137,28.32,25.391,-36.133
32.227,15.137,27.832,33.691,-28.809
22.461,18.066,30.273,30.273,63.965
11.719,19.531,24.902,24.414,60.547
-4.395,17.09,28.32,22.461,30.273
14.648,17.578,37.109,23.926,55.664
36.133,20.996,39.062,28.809,77.148
22.949,19.043,31.738,28.32,13.672
5.859,16.602,28.32,26.367,24.414
-2.93,18.066,28.32,16.113,37.109
13.184,21.973,26.855,8.789,-8.301
30.762,25.879,28.32,19.531,-15.625
22.949,25.391,30.762,21.484,-23.926
8.789,18.555,29.297,13.184,-12.695
-11.23,20.02,26.855,21.484,18.066
0,21.973,23.438,28.32,-64.941
32.227,20.508,27.344,18.555,-73.242
28.809,20.508,27.832,15.137,6.348
18.555,21.484,23.438,18.066,1.953
-5.371,21.973,22.461,18.066,41.504
-4.395,16.602,21.973,15.625,16.602
26.367,20.996,29.297,16.602,19.043
27.832,23.926,27.832,19.531,-8.301
9.766,22.949,27.832,19.531,-56.152
-7.812,22.949,34.668,7.812,-13.184
-3.418,20.02,34.668,13.672,8.789
25.879,21.484,38.574,22.949,-17.09
33.691,28.32,38.574,21.484,1.465
20.508,26.855,32.715,22.461,-6.348
6.348,25.879,34.18,14.648,1.953
-2.93,25.879,35.156,13.184,24.414
20.02,24.902,36.133,11.719,37.109
32.715,28.32,39.551,20.02,51.27
21.484,27.832,35.645,33.203,62.012
9.766,26.367,30.273,17.578,82.52
7.812,25.879,22.461,4.395,35.645
32.715,23.438,21.484,15.137,22.461
46.387,26.367,27.832,26.367,42.969
29.785,28.809,26.367,25.391,33.691
11.719,22.949,20.996,21.484,3.906
1.465,22.949,18.066,13.184,-62.012
16.602,25.391,19.043,16.602,-27.832
27.832,25.879,21.484,23.438,29.785
17.578,28.32,22.461,26.855,14.648
14.648,30.273,19.531,22.461,-66.895
8.301,29.785,19.043,10.742,-53.223
18.555,29.785,20.02,13.184,33.691
41.992,32.715,18.066,17.09,39.551
34.668,37.109,23.926,13.672,9.277
9.766,32.715,24.414,10.254,-17.578
-11.719,29.785,18.066,1.465,38.086
5.859,28.32,19.043,-1.953,64.941
30.762,25.391,22.461,8.789,26.367
21.973,28.809,19.043,25.391,-9.766
13.184,28.32,20.508,19.531,17.09
9.277,29.297,19.043,8.301,52.246
11.719,31.738,14.648,14.648,20.508
39.551,30.273,24.902,13.184,45.41
35.645,31.25,35.156,10.742,80.566
12.207,26.855,32.715,13.672,41.504
5.859,23.438,30.273,10.254,-10.254
6.836,19.043,26.367,9.766,-21.973
45.41,18.555,24.414,23.926,40.039
63.477,21.484,23.438,25.879,31.25
36.621,19.043,19.043,19.531,-24.414
8.301,18.555,15.137,14.16,-2.93
2.441,19.043,14.16,5.859,26.855
29.785,19.043,15.625,5.859,27.832
33.203,18.066,14.16,10.742,15.625
11.23,19.531,11.719,8.789,58.105
0.488,20.996,8.789,5.859,49.805
-0.488,18.555,14.16,-2.93,10.254
27.832,17.578,15.137,-5.371,11.23
33.203,17.578,16.113,2.441,14.16
13.184,19.531,17.578,13.184,21.484
-3.906,20.02,17.09,8.789,103.027
-10.742,19.043,15.625,-4.883,123.535
13.184,17.578,16.602,2.441,8.789
26.855,18.555,18.555,17.578,-10.254
15.137,16.602,16.602,9.277,3.906
-2.441,10.742,15.625,-1.953,4.395
-6.348,12.207,15.625,-0.488,-3.906
16.113,16.113,17.578,-0.488,-36.621
21.484,15.137,21.484,4.883,22.949
0.488,16.113,20.996,9.766,53.223
-11.23,18.555,17.578,0.488,34.18
-16.602,16.113,16.113,-11.23,43.945
-2.93,13.672,21.484,-4.883,2.93
20.508,16.113,30.273,11.719,-40.527
21.484,16.113,30.762,18.555,-22.461
9.277,14.648,28.32,16.602,-5.371
-5.371,14.16,30.762,11.23,20.02
5.371,12.695,31.25,17.09,16.113
30.273,14.648,27.832,26.855,-0.488
16.113,16.602,25.391,28.809,-20.02
5.371,16.113,26.855,19.531,0.488
0.488,19.531,28.32,15.625,-26.855
-0.488,20.508,28.32,16.602,-17.09
20.996,19.043,26.367,16.113,-16.113
27.832,18.066,19.043,18.066,-32.227
18.066,12.207,14.648,4.883,23.926
2.93,6.348,16.602,4.883,0
4.395,3.906,14.648,10.254,0.977
34.18,5.371,7.812,9.766,13.672
40.527,5.859,5.859,17.578,26.367
18.555,4.395,6.348,12.695,80.566
-5.371,9.766,11.23,-4.395,40.527
-13.184,11.719,11.719,-2.441,-18.555
12.207,10.742,10.254,4.395,21.973
20.508,13.672,12.207,6.836,46.387
6.348,16.113,15.625,8.789,41.504
-5.371,16.113,19.531,0.488,22.949
-11.23,14.648,17.578,2.93,28.32
14.16,10.254,20.508,8.301,31.25
28.809,6.836,21.973,11.719,23.926
15.625,6.836,20.508,18.066,75.195
0.488,4.395,20.508,10.254,53.711
-10.742,3.418,19.043,-5.371,12.695
16.113,8.789,25.391,-3.906,21.973
34.18,8.789,25.879,-0.488,15.137
18.066,7.812,21.484,8.789,23.926
-0.977,12.695,23.438,8.301,53.223
-7.812,14.648,20.02,-8.789,63.965
10.742,10.254,20.02,-5.371,3.906
25.391,12.695,29.785,4.395,-12.695
17.09,18.555,35.645,13.184,27.832
4.883,18.555,28.32,15.137,18.066
-5.859,17.09,26.367,4.395,45.898
12.695,16.113,29.785,5.371,7.812
38.086,20.02,32.227,19.531,-47.852
36.133,20.996,37.109,15.137,64.941
20.996,17.09,30.762,7.324,125
-8.301,15.625,24.414,1.953,55.176
-0.977,11.719,22.949,3.418,12.207
27.832,10.254,30.762,8.789,69.336
23.926,9.277,35.156,14.648,118.164
18.066,10.254,27.832,19.531,85.449
-0.488,12.695,22.461,3.906,32.715
-3.906,8.789,28.32,0,-55.664
30.273,8.301,35.645,11.719,1.465
25.879,6.348,30.762,10.742,73.242
1.953,0.488,28.32,4.395,17.578
-15.625,0,24.414,-9.766,53.711
-19.043,-0.488,20.508,-12.695,54.688
9.277,2.441,25.391,-4.883,11.23
17.09,5.371,23.438,-7.324,-20.508
-0.488,3.906,15.137,-9.277,-32.227
-15.625,5.859,15.137,-5.371,8.789
-15.625,4.883,17.578,-8.301,-14.648
14.16,5.859,17.09,-2.93,-27.832
26.367,13.672,21.484,15.625,36.621
12.695,15.625,21.973,15.625,64.453
-0.488,11.719,12.695,0,56.152
-8.789,11.23,4.883,-5.859,5.371
15.625,12.207,9.277,5.371,-27.344
27.832,18.066,18.555,16.113,8.301
14.16,22.461,16.602,18.066,-3.906
-1.465,20.508,7.812,8.301,-18.555
-11.719,17.578,5.859,-0.977,0.977
9.277,15.137,7.324,0.488,-8.789
23.438,12.695,10.254,5.371,22.461
6.348,11.719,4.395,9.766,13.672
-12.207,13.672,1.953,-2.93,-6.836
-18.066,12.207,1.465,-16.602,11.719
-3.906,8.789,-0.488,-10.742,-7.812
6.348,9.277,9.277,0.977,20.02
9.277,13.184,17.09,8.789,38.086
5.371,14.648,12.695,9.766,32.227
-11.23,17.578,12.695,1.465,52.734
3.418,21.484,11.23,0.977,40.527
32.227,25.391,21.484,10.742,0
27.344,26.855,33.203,14.648,68.359
10.742,23.438,27.344,6.348,75.684
1.953,20.996,24.414,0.977,13.184
14.648,21.484,25.391,13.184,12.695
34.18,22.461,32.227,17.09,36.621
28.32,22.461,34.668,9.766,23.926
8.789,25.879,27.832,12.695,20.02
-5.371,27.832,32.715,20.508,-3.418
6.836,26.855,38.086,22.461,24.902
43.457,27.832,36.133,25.879,-0.977
40.527,28.32,36.621,34.668,-21.484
16.602,26.855,33.691,35.156,27.344
3.906,29.297,26.367,21.484,41.504
9.766,27.832,21.973,13.672,53.711
31.738,29.785,24.414,10.742,25.879
32.227,33.203,20.02,16.602,20.02
20.02,31.738,19.531,24.414,52.246
6.348,34.18,23.438,18.066,68.848
0.977,34.668,21.484,12.695,61.035
29.297,32.715,27.344,9.277,62.988
34.668,34.18,35.156,12.695,75.195
13.672,33.203,29.297,16.602,66.406
-2.441,31.25,22.949,5.859,69.824
0,31.738,24.414,3.906,85.449
26.855,31.738,31.25,18.555,40.527
36.133,30.273,35.645,27.832,-27.832
26.367,31.25,33.203,26.367,1.465
8.301,32.227,27.832,21.484,-23.926
-0.977,27.832,25.879,22.949,-66.895
22.949,28.32,29.785,23.926,22.949
36.133,33.691,34.668,23.438,39.551
25.391,37.109,38.574,30.273,19.531
19.043,36.621,35.645,27.832,24.902
2.441,34.668,29.297,13.184,29.297
20.996,36.133,28.809,7.324,15.625
45.898,38.086,30.273,14.648,-28.32
27.344,37.598,24.902,17.578,9.277
12.695,34.18,22.461,11.23,-36.621
-5.859,32.227,21.973,6.836,-55.664
1.465,32.227,23.926,10.742,-79.102
26.367,31.25,28.809,13.672,-104.004
24.902,32.227,24.414,14.16,-60.059
9.277,32.715,23.926,10.254,-29.785
-6.348,29.297,25.879,-0.488,-30.273
7.324,21.973,23.926,-5.371,-20.508
30.762,20.02,29.297,3.906,35.645
20.996,22.461,33.691,20.508,22.949
9.277,20.508,29.297,27.832,0
-1.953,19.531,27.344,1.953,35.645
-3.906,19.531,31.25,-8.789,125.977
27.832,19.531,32.715,11.23,106.445
38.086,20.02,28.809,18.066,17.09
15.137,14.648,23.926,16.113,1.953
0.488,10.742,19.531,18.555,-10.742
11.23,10.254,20.508,19.531,1.953
35.156,11.23,32.715,25.879,84.961
33.203,14.16,34.18,25.391,67.871
21.484,14.16,24.902,16.602,44.922
-2.93,10.742,21.973,4.395,35.156
-14.648,7.324,19.043,-7.812,18.066
14.16,7.812,25.391,-3.418,64.453
25.391,8.789,28.809,7.324,30.762
7.812,7.812,25.391,12.695,-3.906
-8.301,7.324,26.855,4.395,-36.621
-15.625,8.301,27.832,0.977,-2.93
12.695,8.789,27.832,6.836,29.297
26.367,7.324,23.438,6.836,-35.156
15.137,6.348,22.461,11.23,1.953
2.93,6.836,22.461,5.371,27.344
-11.23,3.906,19.531,-2.93,30.762
13.184,-0.488,21.973,8.789,-19.043
29.785,0.488,32.227,11.719,-31.738
16.113,-0.977,26.855,7.812,36.621
-1.953,-3.418,21.484,3.906,36.133
-17.578,-4.395,22.461,-5.371,-1.465
-1.465,-1.953,21.973,-0.488,26.855
29.297,1.953,20.508,16.602,41.504
20.02,0,19.531,15.625,-19.043
9.277,2.441,18.555,1.465,-41.016
-2.93,3.906,16.602,-3.906,49.316
7.324,1.953,16.602,-3.906,36.133
44.434,6.348,20.996,2.93,-56.641
47.363,9.277,22.949,10.254,-16.113
22.949,8.789,20.508,2.441,22.949
-3.906,5.859,21.973,-4.883,47.852
5.859,0.977,22.461,0.977,42.48
27.832,-0.977,18.555,15.625,40.039
19.043,-3.418,11.719,13.184,8.789
8.789,-3.906,10.742,2.93,15.137
-7.324,-5.859,7.812,-0.977,57.617
-4.883,-10.742,8.301,-3.418,10.254
33.203,-9.766,17.09,1.953,-7.812
33.691,-8.301,17.09,4.883,23.926
8.789,-8.789,17.09,10.742,65.918
-7.812,-10.254,20.02,8.301,32.715
-7.812,-13.184,17.578,2.441,1.953
16.602,-12.207,17.578,1.953,1.465
22.461,-8.789,21.484,-0.977,-18.555
1.465,-2.93,19.043,3.418,-12.207
-14.16,0,15.625,-6.348,-11.719
-6.836,-0.488,21.973,-7.812,-8.301
20.996,-1.953,27.344,9.277,16.602
28.32,1.953,26.855,12.207,40.039
17.578,6.348,27.344,10.254,-6.348
5.859,5.859,26.367,4.883,-6.348
3.418,3.418,17.578,2.93,116.211
29.297,2.441,12.207,10.254,140.625
42.969,6.348,17.09,10.742,75.684
35.645,7.812,17.09,14.16,48.34
18.066,8.301,15.137,15.625,47.363
10.742,6.836,7.812,7.812,53.223
24.414,4.395,5.859,8.301,10.254
26.855,8.301,15.625,14.16,23.438
20.996,9.766,20.996,16.113,18.555
7.324,8.789,28.32,13.672,12.207
-6.836,8.789,28.32,5.859,41.504
17.578,5.371,23.926,2.93,-5.371
36.133,6.836,32.227,10.254,47.852
22.461,10.254,32.715,18.555,67.383
12.695,13.672,24.902,11.719,50.293
-5.371,10.742,21.973,-6.836,70.312
7.324,10.254,21.973,0,2.93
32.715,15.137,22.461,18.555,-79.102
19.043,15.625,24.414,16.602,-45.41
9.766,15.137,24.902,10.742,-24.902
5.371,14.16,24.414,9.766,5.371
5.371,10.742,26.367,7.812,22.461
30.273,9.766,29.297,7.324,-35.645
31.25,13.672,31.738,10.742,-31.738
16.113,12.695,30.762,14.16,-14.648
-0.488,9.766,24.902,5.859,-30.273
1.465,8.301,23.926,-6.836,54.688
29.297,11.23,25.391,11.23,59.082
26.855,15.137,23.438,20.508,35.645
12.695,16.602,23.926,18.066,32.715
-6.348,17.09,25.879,16.113,40.527
-7.812,14.648,29.297,5.371,23.438
26.367,15.625,27.832,7.324,-21.973
40.039,18.555,26.367,20.996,-27.832
20.02,16.602,26.855,23.438,-21.484
11.719,19.043,23.438,8.301,56.152
12.695,20.996,18.555,6.348,80.078
19.043,20.996,25.879,19.531,26.855
22.949,21.973,37.598,26.855,-0.488
14.16,22.949,33.691,23.438,41.016
0.488,20.996,31.25,14.16,40.527
-8.301,18.066,34.18,3.418,34.668
25.391,17.09,39.062,1.953,83.496
35.645,14.648,40.039,18.555,60.059
15.137,11.23,36.621,20.508,1.465
0.488,10.742,32.227,9.766,19.531
-5.859,8.301,23.438,10.254,-4.395
21.973,10.742,21.973,17.09,-19.531
36.133,14.16,24.414,18.555,-13.184
22.949,10.742,25.391,16.113,28.809
9.766,9.277,26.855,12.695,73.73
-9.766,7.812,24.414,5.371,-13.672
6.836,6.836,28.32,15.625,-28.32
36.133,11.719,37.109,25.391,37.598
26.855,14.648,39.062,23.926,37.598
8.789,14.16,32.227,21.484,4.395
-2.93,15.137,23.438,7.324,15.625
6.836,16.113,23.926,2.441,16.113
21.973,18.555,29.785,18.066,27.344
17.09,17.578,29.785,16.602,67.383
1.953,14.16,21.973,13.672,41.016
-11.719,12.695,15.625,15.137,-30.762
-4.883,9.277,21.484,5.859,0.488
21.973,9.766,29.785,7.812,40.039
24.902,9.277,30.273,20.02,48.828
11.23,6.348,30.273,19.531,52.734
-13.184,3.906,26.855,0.977,-15.625
-16.602,2.441,24.414,0.977,-57.617
14.16,6.836,31.738,17.09,-8.789
16.602,6.836,36.621,18.555,43.945
4.883,4.395,37.598,14.648,-32.715
-3.906,6.836,30.273,-9.277,-61.523
-7.324,4.883,25.391,-10.742,53.711
24.902,2.441,27.344,5.859,70.312
30.762,5.859,25.391,0.488,38.574
11.23,6.836,18.066,4.395,54.199
-0.977,5.859,14.16,4.883,35.156
-7.812,6.836,7.812,6.348,39.551
10.254,6.348,9.766,7.324,43.457
16.113,3.906,7.324,4.883,46.387
3.906,3.418,0.488,7.812,-32.715
-6.348,6.348,5.859,-0.488,-64.941
-8.301,4.883,3.418,-10.742,14.648
13.672,-0.488,2.441,-12.695,15.137
20.996,2.93,7.324,-5.859,-3.418
11.719,5.859,4.883,2.93,66.406
-4.883,7.324,6.836,7.324,87.402
-10.254,9.277,7.324,2.441,28.809
11.719,10.742,12.695,-7.324,16.113
20.02,11.719,19.043,-0.488,17.578
4.395,9.766,14.16,5.859,-9.277
-10.254,10.254,11.23,-0.977,15.625
-16.602,4.883,9.277,-2.93,-19.531
3.906,3.906,10.254,3.906,-44.434
20.02,8.789,17.578,11.23,6.836
5.371,7.812,16.602,14.16,24.902
0.488,11.23,15.137,7.812,45.41
-9.277,12.695,13.184,3.906,16.602
0,13.184,9.766,6.836,-8.301
20.508,15.137,12.695,22.949,16.113
11.719,16.602,14.648,29.785,59.082
-0.488,20.508,13.184,24.902,41.504
-11.719,20.508,14.16,21.484,12.695
8.301,22.949,21.973,16.113,113.77
41.016,24.414,21.973,22.949,89.355
24.414,20.996,17.578,29.785,40.039
12.695,19.531,20.02,25.391,26.855
2.441,16.113,17.578,13.672,24.414
3.418,11.719,15.137,13.184,83.008
34.668,13.672,17.578,21.973,31.25
23.438,16.602,22.461,27.832,35.645
8.301,18.066,29.297,26.855,74.219
-3.906,18.066,30.762,11.23,4.883
-5.859,15.137,30.273,7.812,-41.504
24.902,17.578,34.668,11.719,-54.688
22.461,19.043,35.156,6.348,-31.25
0,17.578,28.809,6.836,25.391
-18.555,19.531,24.414,6.836,54.199
-11.23,19.043,21.484,2.93,17.578
20.508,17.09,19.531,6.348,8.301
22.949,18.555,26.367,14.16,16.602
10.254,20.996,34.668,24.414,18.555
-4.395,19.043,31.738,17.578,22.949
-10.254,18.555,24.902,4.395,15.137
20.02,19.531,29.297,9.766,-9.766
34.668,20.02,33.691,24.414,-38.086
22.949,20.02,31.25,23.438,-13.672
9.277,20.508,27.344,16.113,-1.465
-1.953,20.996,22.461,10.742,17.09
18.555,20.508,22.461,11.719,20.996
39.551,23.438,26.367,16.602,17.09
28.32,24.414,18.555,7.324,31.738
6.836,21.973,14.648,-3.906,-29.785
-9.766,14.648,19.043,-10.742,4.395
12.695,13.672,26.855,-6.836,34.18
33.203,17.578,30.762,6.348,-22.461
17.09,17.09,27.832,11.719,62.988
10.254,17.578,24.902,9.277,55.664
-13.672,14.16,26.855,-0.488,24.902
-0.977,12.207,24.902,-1.953,-21.484
29.785,14.648,22.949,5.371,-24.902
18.066,13.184,21.484,17.09,90.332
4.395,12.695,21.484,22.461,64.453
-7.812,12.695,16.602,0.977,1.953
-2.441,10.254,12.695,-11.719,-4.395
25.391,15.625,13.184,2.441,35.645
20.02,17.09,9.277,11.23,45.41
0,14.16,9.766,7.324,16.602
-8.301,14.16,10.742,-3.906,-19.043
-10.254,11.23,17.09,-4.883,-12.695
7.324,11.23,28.809,0.488,33.203
19.043,9.277,26.855,1.953,40.039
2.441,9.766,22.461,1.465,42.969
-19.531,10.742,24.902,-7.324,77.637
-9.277,8.789,18.555,-6.836,55.176
26.367,11.23,14.16,8.301,24.414
28.32,15.625,17.578,7.324,13.672
9.277,13.184,20.508,8.301,-9.277
5.859,9.766,23.438,4.395,-38.086
7.324,10.742,20.02,0.488,19.043
21.484,13.672,20.02,14.648,35.156
27.832,16.113,29.297,20.02,1.953
16.113,17.578,34.668,19.043,57.617
-7.812,16.113,28.32,7.812,38.574
-13.672,15.625,21.973,1.953,64.453
18.066,14.648,22.949,11.23,106.445
30.273,13.184,25.391,20.02,51.27
17.09,14.16,26.367,13.184,28.809
6.348,13.184,20.02,7.324,-15.137
-1.953,9.766,13.184,6.348,32.227
14.648,12.207,15.137,10.254,83.496
30.273,18.555,19.043,20.996,58.105
22.461,19.043,21.973,16.602,33.691
9.277,18.066,21.973,4.395,29.785
3.906,18.066,17.09,5.859,37.109
22.949,17.578,19.531,-1.465,22.949
40.039,16.602,25.879,-1.953,-10.254
26.367,20.996,27.344,6.348,-12.207
6.348,24.414,25.879,1.465,-27.832
-1.953,22.461,23.438,-2.93,-8.789
15.625,20.508,19.531,1.953,0
39.062,23.926,24.902,9.277,21.973
37.598,27.344,27.344,22.461,5.859
30.273,26.367,27.832,18.555,-62.5
23.926,25.879,34.668,-0.977,-1.465
34.18,24.414,36.133,4.883,-13.184
56.152,23.438,36.621,13.184,-54.199
48.828,21.484,35.645,14.16,-13.672
32.715,21.973,35.156,16.113,12.695
6.836,21.484,31.25,10.254,66.406
5.859,19.531,30.273,2.441,53.711
36.621,22.949,39.551,11.23,-16.602
32.227,23.926,36.621,12.695,-40.039
11.719,21.973,29.297,10.254,51.758
0.977,20.508,29.297,6.836,48.34
8.301,15.625,27.832,2.441,-29.785
36.621,15.625,35.156,14.648,-26.855
39.062,21.484,37.109,21.973,10.742
21.484,20.508,25.879,16.113,13.672
3.906,18.066,19.531,8.789,-58.105
2.441,17.578,20.508,4.883,21.484
27.344,24.902,22.461,8.301,74.707
31.738,28.32,21.973,21.484,40.527
22.461,26.855,19.043,21.973,31.25
4.883,28.809,17.09,8.789,9.277
-1.953,23.926,17.09,4.883,6.348
21.973,19.531,14.648,2.441,7.324
22.949,19.043,15.137,12.207,8.789
13.184,18.066,10.254,11.719,35.645
9.277,14.648,2.93,5.859,78.125
-4.395,14.648,3.418,6.348,51.758
8.301,15.137,9.766,10.742,63.965
20.02,13.672,9.277,14.648,44.434
10.742,9.277,8.789,18.555,3.418
0.977,5.371,11.719,14.648,-8.789
-12.207,4.883,8.301,-2.441,8.789
5.859,8.301,14.16,-0.977,26.367
31.25,9.766,22.949,17.09,59.082
24.902,10.254,18.066,22.461,6.836
15.137,13.672,18.066,8.789,-62.988
2.93,11.719,15.625,0.977,26.855
10.254,11.719,10.742,1.953,-1.465
38.086,20.508,16.602,12.695,-1.953
35.645,21.973,21.973,33.203,76.66
17.09,17.09,20.02,28.32,24.414
4.395,17.09,13.184,10.254,-21.973
12.695,19.043,9.277,17.09,4.395
32.227,21.484,16.113,20.996,17.09
24.414,17.578,19.531,14.648,101.562
11.719,14.16,10.254,14.648,89.355
-4.883,11.719,3.906,11.23,-17.578
-8.789,7.812,3.906,5.371,-49.316
14.16,9.277,9.277,5.859,33.203
19.531,8.789,14.648,12.207,66.895
13.184,10.254,11.719,9.277,25.391
-2.93,13.184,14.16,3.906,15.137
-7.324,9.277,18.555,8.301,2.93
20.02,8.789,17.578,6.836,31.738
30.273,7.812,14.648,-1.953,41.992
18.066,4.395,11.23,0,8.301
-3.418,5.371,5.859,-1.465,-2.93
-14.648,3.418,1.953,-7.324,49.316
14.16,0.977,6.836,-0.977,56.641
21.484,3.418,9.766,7.324,31.738
3.906,5.371,9.277,12.207,38.574
-3.906,5.859,11.719,16.113,18.066
-4.883,6.348,11.23,13.672,-19.531
20.02,8.301,14.648,11.719,-22.461
32.227,9.277,18.066,17.09,19.043
15.625,8.789,20.508,17.09,46.875
-1.953,9.766,18.555,12.695,48.828
-3.418,9.277,14.16,8.789,81.543
9.277,8.301,13.184,9.277,61.035
13.672,12.207,14.16,15.625,54.199
13.184,14.16,14.16,17.578,43.945
5.859,13.184,15.625,16.602,5.859
-10.742,11.23,16.602,5.859,16.113
14.648,10.742,19.531,0.488,1.953
34.668,12.207,28.809,17.578,20.996
15.625,11.719,25.879,21.973,29.297
9.766,9.277,20.508,22.949,12.695
5.859,9.766,22.461,20.508,24.414
18.066,11.23,24.902,23.438,23.438
31.738,15.137,28.809,42.48,24.902
27.832,16.602,24.902,40.039,20.02
18.066,11.719,22.461,25.879,16.113
1.953,7.324,20.996,16.602,16.602
4.883,3.906,20.996,14.648,-7.812
21.484,6.836,28.32,19.043,-5.859
21.973,8.789,24.414,26.855,-47.363
4.395,7.812,18.066,24.902,-31.738
-1.953,8.301,18.555,7.812,39.062
12.207,10.254,17.09,8.301,-20.508
33.691,15.625,21.484,22.461,6.836
39.062,20.996,20.508,27.832,40.039
20.02,20.508,12.695,22.949,62.5
7.324,15.137,9.277,13.672,33.203
9.766,12.695,5.371,11.719,-19.043
36.621,13.672,9.766,14.648,53.711
52.734,15.137,13.184,21.484,63.477
26.367,15.625,9.766,13.672,50.293
-6.348,16.602,3.906,2.441,35.645
-6.348,21.484,1.465,7.324,-2.93
20.02,21.484,9.277,10.254,-26.855
29.297,16.113,9.277,19.043,10.254
17.09,17.578,9.766,20.508,-7.324
-1.953,17.09,16.602,2.93,25.391
-10.742,16.113,15.625,0.977,75.684
17.09,19.531,15.137,11.23,-16.602
37.598,20.508,17.09,25.879,-10.254
24.414,17.09,16.602,19.531,12.207
6.348,15.137,21.484,13.672,9.766
-1.465,14.648,18.066,20.996,31.738
26.367,17.09,18.066,13.672,16.113
43.457,22.949,27.832,14.648,11.719
25.879,20.996,22.461,16.602,-11.23
14.648,17.09,15.625,13.672,-15.625
-0.488,16.113,14.16,5.859,55.176
5.859,13.184,15.625,6.348,-9.277
27.344,14.648,20.508,18.066,-61.523
19.043,19.043,17.09,15.137,19.531
0.977,17.578,10.254,9.766,-0.977
-4.883,12.207,8.301,6.348,0.488
7.812,8.789,8.301,2.441,18.066
28.32,10.254,7.812,15.137,25.879
33.203,12.695,2.441,18.555,21.973
15.137,13.672,-2.93,8.301,29.297
-2.93,14.16,-7.812,-7.324,62.5
3.418,14.16,-8.789,-14.648,62.988
24.902,19.043,1.953,1.953,52.246
19.531,21.973,8.301,7.324,34.18
1.465,16.602,6.836,2.441,8.789
-8.301,14.648,5.371,5.371,-9.766
-6.348,15.137,4.395,-0.977,-29.297
19.531,15.625,11.719,4.395,76.66
24.902,13.672,10.254,9.766,102.539
7.324,11.719,0.488,3.906,15.137
-4.883,14.16,-2.441,2.93,40.527
-6.348,13.184,2.441,-1.953,93.75
22.949,13.184,11.23,7.324,75.684
34.18,15.625,14.16,24.414,49.805
9.766,18.555,17.09,22.461,41.992
-3.906,18.066,22.461,10.254,40.039
0,17.09,19.043,-1.953,15.625
18.066,20.508,23.438,3.418,46.387
20.508,20.996,23.438,11.23,44.922
15.625,21.484,24.414,17.578,-4.883
7.324,21.973,28.809,17.578,-14.16
-6.836,19.043,20.508,4.395,20.508
7.812,18.555,19.531,11.719,57.617
16.602,20.02,24.902,17.578,46.387
3.418,19.531,26.855,7.812,80.078
-4.883,21.484,23.438,10.254,59.57
-8.789,22.949,18.555,14.16,72.754
3.418,23.438,22.949,8.789,72.754
16.602,24.414,28.809,10.742,-12.695
11.719,23.438,25.391,19.043,-12.695
2.441,20.02,22.461,15.137,21.484
-12.695,18.066,17.09,8.789,21.973
-4.395,18.066,17.09,12.695,9.766
12.207,17.09,24.414,16.602,73.242
9.766,14.16,20.508,9.766,56.152
-2.93,11.23,19.531,-0.488,-40.039
-21.484,10.254,18.555,-0.977,-1.953
-5.371,14.648,19.043,9.766,14.648
13.184,17.578,21.484,14.648,-9.277
2.93,17.578,23.438,14.16,3.906
-10.742,19.043,22.949,11.23,67.383
-25.879,18.555,19.043,4.395,38.574
-22.461,17.578,26.367,-4.395,-27.344
5.859,20.02,30.273,-1.465,23.438
8.301,21.484,28.32,13.184,38.574
-5.859,19.531,27.344,9.277,28.32
-16.113,19.043,22.461,-13.672,6.348
-13.184,16.602,21.973,-11.719,14.16
18.555,13.672,20.02,4.883,-4.395
19.531,10.742,14.648,20.508,-43.457
-0.488,8.789,19.531,18.066,24.902
-13.184,8.789,20.508,1.953,48.34
-9.766,7.812,11.23,-7.812,4.395
17.09,9.277,15.625,-6.836,-6.348
18.555,11.719,25.391,4.883,-24.414
12.207,14.648,24.414,6.348,-4.395
-0.977,18.555,23.926,1.953,43.945
-10.254,16.113,24.414,-3.906,38.086
18.555,15.625,24.902,-2.441,26.367
33.691,16.602,27.344,7.812,4.883
14.16,17.09,28.32,8.789,-8.789
2.93,15.625,26.855,8.789,12.207
1.465,13.184,26.367,9.277,93.262
24.414,11.23,33.691,14.16,63.477
38.574,15.625,37.109,16.113,48.34
20.996,19.043,31.738,3.906,42.969
-1.465,19.043,30.762,-5.859,70.312
-9.766,16.602,28.32,-4.883,89.844
12.695,12.207,32.227,1.465,28.32
32.227,13.184,32.227,12.207,27.344
25.391,14.16,27.344,16.602,15.137
9.277,11.23,24.902,10.742,-5.859
1.465,9.766,20.996,5.371,-5.859
11.719,10.254,22.949,12.695,-25.391
15.137,11.23,26.855,15.137,-21.973
12.207,11.23,24.414,8.301,37.109
5.371,6.836,21.484,11.719,-18.066
-12.695,6.348,20.02,4.395,-37.109
-0.488,12.695,17.09,-1.465,-62.988
22.461,13.672,22.461,12.207,-30.762
18.555,14.648,20.508,15.137,27.832
6.348,14.16,11.719,0.977,10.254
-15.625,11.23,4.395,1.953,5.371
1.465,11.23,2.441,2.93,29.785
28.809,11.719,6.348,4.395,38.574
16.602,11.23,3.906,14.16,39.551
2.441,9.277,0.977,11.23,-14.16
-1.953,6.836,2.93,6.348,-71.289
3.906,2.93,6.836,11.719,-57.617
26.367,6.348,16.113,15.137,-52.246
33.203,12.207,19.043,17.09,-11.719
21.973,14.16,10.254,17.578,-64.453
5.371,12.695,5.371,5.859,-51.758
-6.836,9.766,10.254,3.418,6.348
19.043,10.254,20.02,13.184,1.465
23.926,10.254,27.832,23.926,-11.719
3.906,6.836,27.832,20.996,-38.574
5.371,3.418,18.066,7.812,-39.062
8.301,1.465,19.531,7.324,14.16
13.184,2.441,28.32,17.09,38.574
19.043,4.395,26.367,23.926,-20.996
10.254,5.371,28.809,20.02,12.695
-4.883,6.836,26.367,14.16,62.5
-3.906,8.301,25.391,11.719,58.105
20.996,4.883,34.18,13.672,87.402
21.484,6.836,32.715,15.625,77.148
15.137,14.16,27.832,16.602,37.109
10.254,12.207,29.785,13.184,15.625
-8.301,8.789,29.785,8.301,55.176
4.395,7.324,27.832,7.324,42.969
28.32,8.789,27.344,8.789,2.93
18.555,11.719,25.879,16.113,40.527
5.859,16.113,27.344,15.137,101.562
-4.883,13.672,18.066,10.254,83.008
10.742,12.207,14.16,9.277,54.199
35.645,20.996,25.391,7.812,73.73
28.809,21.973,28.32,8.301,23.438
6.348,17.09,24.902,13.672,-24.902
-12.695,17.09,20.996,9.766,27.832
-1.465,17.09,24.414,0,62.5
26.367,17.578,26.855,17.09,65.43
20.02,18.555,22.461,28.809,64.453
7.812,20.996,23.926,20.996,7.324
6.836,21.973,21.484,12.207,16.113
10.742,16.602,19.531,11.719,55.664
28.32,14.16,26.367,15.625,66.406
30.273,13.184,24.902,24.414,35.156
16.113,12.695,28.809,27.832,9.766
-13.184,10.742,32.715,12.207,77.637
-10.254,10.254,28.809,5.371,87.891
28.32,14.16,29.297,16.602,10.742
18.555,17.09,28.809,21.973,30.762
7.812,17.578,28.809,22.461,24.902
5.371,16.113,21.484,13.672,4.883
-2.93,16.113,16.602,2.441,0
23.926,19.531,25.391,8.301,-61.035
29.297,24.414,26.855,13.184,-13.184
17.09,24.414,21.484,20.508,20.996
8.301,24.902,23.438,11.23,-17.09
-0.488,21.484,20.02,-3.906,-41.504
27.832,20.508,22.461,0,-19.531
37.598,23.438,21.973,17.09,56.152
16.113,20.508,14.648,18.555,46.387
3.906,20.02,15.625,7.812,12.695
3.418,20.508,17.578,8.301,14.648
29.785,17.09,23.438,6.836,7.812
39.062,18.066,27.832,10.254,-10.742
18.066,20.996,27.832,20.996,3.906
4.883,20.996,22.949,14.648,79.59
2.93,19.043,14.16,0.488,99.121
24.414,16.602,15.137,6.348,15.137
37.598,17.578,25.879,19.531,-22.949
30.273,17.578,23.926,16.602,-25.879
18.555,16.602,14.648,11.23,-2.441
-2.441,14.648,13.184,14.648,18.555
8.301,11.719,17.09,10.254,-6.836
34.18,12.207,18.066,7.324,-50.781
23.926,15.625,17.578,8.789,-25.391
3.906,14.648,19.531,3.418,14.16
0.488,14.16,22.461,2.93,35.645
17.578,18.555,30.273,6.836,57.617
32.227,17.09,35.645,14.648,-5.859
23.926,16.113,36.133,21.973,-33.203
22.461,20.02,40.039,19.531,16.602
9.766,21.973,37.109,13.184,-8.789
15.137,23.926,36.621,18.066,-21.484
44.922,23.438,40.039,20.02,23.438
38.086,20.02,30.273,24.902,41.992
17.578,18.066,22.461,33.203,14.16
1.953,17.578,19.043,20.508,20.996
1.953,19.043,17.09,3.418,19.531
20.508,17.578,21.973,4.883,-27.832
14.16,10.742,24.414,9.766,1.953
1.953,6.348,25.391,5.859,17.09
0,7.812,27.832,5.371,-3.906
3.906,6.836,20.996,1.953,27.344
30.273,10.742,19.043,9.277,56.641
26.367,11.719,24.902,22.461,28.32
7.812,10.742,26.367,19.043,-7.324
1.465,14.648,22.461,10.254,30.762
0,12.695,16.602,1.953,11.23
27.344,12.695,24.414,9.766,10.742
36.133,14.16,33.203,23.438,79.59
17.09,11.23,33.691,18.555,28.809
7.324,10.254,35.156,9.766,0
2.93,9.277,31.738,7.812,71.289
18.555,9.277,37.109,15.137,56.641
28.32,13.672,44.434,20.508,29.297
10.742,15.625,39.551,15.625,68.848
-0.977,15.625,36.133,15.625,18.555
-10.742,17.578,34.668,9.766,28.32
4.395,16.602,36.133,6.348,61.523
24.902,17.578,33.203,20.02,29.785
12.695,18.555,25.879,22.461,2.93
8.789,18.066,22.949,11.719,-56.641
-0.488,18.555,20.996,4.883,-9.277
-1.465,15.137,17.578,4.883,28.809
13.184,16.602,17.09,13.672,14.648
11.23,19.043,19.043,15.625,29.785
-0.488,20.508,21.973,5.371,35.156
-9.277,23.926,19.043,14.16,45.41
1.465,22.949,19.531,20.508,22.461
21.973,21.973,30.762,15.137,1.953
14.648,23.438,31.25,17.578,23.926
8.789,24.902,22.461,11.23,1.465
1.465,25.391,10.742,6.836,40.039
2.93,27.344,6.348,10.254,60.059
23.438,30.273,19.043,19.043,13.184
19.043,27.344,21.484,20.996,9.766
4.883,26.367,13.184,13.184,-16.113
-12.207,25.391,11.23,4.883,-23.926
-2.441,20.508,9.277,0,25.391
36.621,17.578,12.695,7.324,52.246
23.926,19.043,14.648,11.23,11.23
-2.441,19.043,14.648,9.277,59.57
-10.254,18.066,9.277,2.93,69.336
-14.16,19.531,8.789,1.953,-35.156
13.184,19.531,15.625,5.371,-17.578
21.484,22.461,14.648,13.672,14.16
11.23,27.832,12.695,10.742,-30.762
4.883,23.926,12.207,1.953,-35.645
-0.488,17.09,16.113,-5.859,-41.992
15.137,15.625,25.879,-3.418,-42.48
23.926,16.602,27.344,16.113,19.043
23.926,14.648,19.043,21.484,35.645
14.16,18.066,23.438,17.578,-16.113
1.953,19.531,26.367,2.93,11.719
26.367,17.578,23.926,7.324,23.926
34.668,16.602,25.391,26.367,-16.113
21.973,13.184,20.996,23.926,-45.898
16.113,17.09,26.367,22.461,4.883
3.906,17.578,29.785,16.113,23.926
30.762,16.602,28.809,12.207,-40.527
49.316,18.066,32.227,20.02,-70.312
26.855,18.555,30.762,19.043,10.742
3.906,19.531,27.344,11.23,59.082
-12.207,15.625,24.414,3.418,11.23
2.93,12.695,28.32,6.836,-50.781
18.555,14.648,40.527,11.23,6.348
12.695,14.648,41.504,12.207,95.215
11.23,14.648,35.156,12.695,44.922
4.395,13.184,26.367,7.324,17.578
13.184,13.184,27.832,2.93,55.176
37.109,18.066,30.762,8.301,52.734
36.133,18.066,24.414,22.461,20.996
21.973,18.066,15.625,21.484,39.062
7.812,17.578,7.812,12.207,98.145
15.625,15.625,8.789,10.742,53.711
41.992,18.555,10.742,13.184,50.781
42.969,18.555,2.441,20.996,17.09
22.949,14.648,3.418,28.32,28.32
0.488,14.16,4.395,18.066,84.961
9.277,15.137,-1.953,6.836,3.418
41.992,13.672,0.488,17.09,-22.949
35.645,13.184,1.953,18.555,24.902
16.602,16.602,3.906,12.207,61.523
12.695,12.695,1.953,5.859,36.133
18.066,11.719,1.465,0.488,30.762
34.668,17.09,7.812,12.207,24.902
40.039,16.113,12.695,18.555,62.012
29.785,17.09,10.254,16.602,70.312
13.672,16.113,6.836,12.695,21.484
5.859,12.695,11.23,7.324,44.434
27.344,16.113,25.879,17.578,26.367
44.434,19.531,33.203,23.926,41.992
31.25,14.16,31.738,15.137,65.918
18.066,13.672,30.273,11.23,28.809
9.766,12.207,24.902,10.254,-4.883
18.066,8.301,27.832,4.883,-31.738
26.367,8.301,29.785,10.254,1.465
19.043,12.207,29.297,20.996,44.922
9.277,18.066,25.879,17.578,30.762
2.93,18.066,29.297,8.789,43.457
26.367,16.602,41.016,12.207,62.5
46.387,14.16,41.016,22.949,-12.695
33.691,15.137,44.434,23.438,-62.5
26.855,17.09,45.898,15.137,-31.25
13.672,15.625,48.34,7.324,55.176
24.902,15.137,55.664,9.277,102.051
48.828,18.555,62.5,19.531,63.477
31.25,17.578,66.406,18.066,38.574
14.16,16.113,62.012,12.207,38.574
-2.93,15.137,49.805,7.324,-15.625
0.488,14.648,49.316,10.254,-18.555
24.902,18.066,56.641,14.16,22.461
16.602,18.555,60.059,17.578,36.133
5.859,17.578,59.57,11.23,77.637
0.977,15.137,50.781,1.953,130.859
3.906,8.301,48.828,0.488,74.219
28.32,7.324,50.781,12.695,13.672
24.902,9.277,51.758,19.043,11.719
5.371,10.254,58.105,20.996,32.715
0.488,8.301,56.641,19.043,66.895
5.859,7.324,52.246,4.395,17.578
31.738,11.719,54.688,10.254,8.301
43.457,11.719,53.711,27.344,47.363
25.879,6.836,48.828,23.438,82.031
7.812,5.859,42.48,13.672,52.246
10.254,9.277,45.41,12.695,-8.789
41.504,14.648,52.246,20.508,46.875
49.316,14.16,51.27,25.879,18.066
29.785,10.742,45.41,20.996,-12.695
13.672,11.719,43.457,11.719,63.477
8.789,11.23,41.992,7.324,98.633
38.086,12.207,47.852,14.648,47.852
49.316,17.578,46.875,24.414,9.277
35.156,17.09,36.621,27.832,34.668
20.508,13.184,39.062,16.602,43.457
10.742,8.301,39.551,7.812,1.953
28.32,8.789,42.48,9.277,-33.691
32.715,13.184,41.992,21.973,41.016
16.113,11.719,35.156,22.949,37.598
1.465,12.207,24.902,8.301,-14.16
-7.812,10.254,14.648,6.836,-67.383
6.836,8.301,17.09,9.766,-9.766
22.461,10.254,13.672,9.277,80.566
15.625,8.301,5.371,7.812,29.785
0,8.789,7.812,4.883,46.387
-10.742,13.672,8.789,0.488,74.219
5.371,14.648,10.742,1.953,35.156
19.531,12.695,11.23,13.184,14.648
15.625,11.23,8.789,17.09,11.719
6.836,9.766,12.695,8.789,16.113
-6.348,12.695,15.625,7.812,29.297
5.859,12.695,17.09,14.16,-4.395
36.621,12.207,22.461,16.113,8.301
37.598,15.625,25.879,19.043,67.871
22.461,15.137,27.344,22.949,36.621
12.695,11.719,24.902,12.207,-7.324
7.324,14.16,27.832,6.836,21.973
29.785,18.066,32.715,19.531,35.645
38.574,17.578,26.367,22.461,-17.09
21.484,17.578,24.414,20.508,-50.781
9.277,13.184,25.391,14.16,-2.93
5.859,9.766,23.438,5.371,41.504
24.414,10.254,25.879,6.348,48.34
26.855,7.812,27.344,11.719,9.766
12.207,8.301,28.809,13.184,-63.477
-8.789,8.301,32.227,2.441,-5.371
-8.301,8.301,33.691,-8.301,65.43
21.484,7.324,37.109,4.883,34.18
23.926,7.324,32.715,19.043,3.418
5.371,11.23,25.879,13.672,0
-6.836,12.695,21.484,9.766,42.969
1.465,12.695,23.438,13.184,31.25
26.367,15.625,36.133,20.508,-22.461
22.949,17.578,47.852,25.879,21.484
12.695,21.973,44.434,18.066,41.504
15.137,24.414,34.18,6.348,1.953
4.395,20.996,35.156,6.348,-1.465
12.695,24.414,44.434,12.695,22.461
30.273,23.926,41.992,14.648,56.152
23.438,19.043,35.645,11.23,10.742
12.207,20.02,33.691,5.371,-20.02
5.371,18.555,25.391,0.977,4.883
23.438,20.996,26.855,6.348,-7.324
35.645,21.973,31.738,15.625,-22.949
23.926,21.973,26.855,22.461,1.465
7.812,19.531,23.926,10.742,8.301
-10.742,13.672,23.926,1.953,-28.809
10.742,15.137,24.414,3.418,-56.641
42.969,16.602,22.461,8.789,-37.109
36.133,17.09,21.484,15.625,3.906
14.648,16.113,20.508,9.277,-48.34
5.371,12.695,16.602,-1.953,-39.062
18.555,13.672,21.484,-0.488,-2.441
35.645,15.625,32.227,14.16,-16.602
35.156,15.625,31.738,17.09,4.395
18.066,12.207,28.809,20.02,7.812
-0.488,7.324,25.391,14.648,7.812
6.348,7.812,22.949,7.324,8.301
29.297,12.695,28.809,17.09,38.574
36.133,12.695,28.809,24.902,1.953
25.391,9.277,21.973,31.738,-51.27
5.859,12.695,21.973,29.785,25.391
10.254,22.461,20.02,17.09,50.781
40.039,25.391,19.043,28.809,59.57
38.574,21.973,22.461,35.645,79.102
20.02,20.508,21.484,25.879,23.438
14.648,19.531,12.695,11.23,6.836
8.301,19.043,15.625,0.977,29.297
25.391,21.973,25.391,14.16,-1.953
36.621,20.508,22.949,22.461,6.348
24.414,17.578,23.438,16.113,20.02
3.418,15.137,25.879,7.812,2.441
-0.488,13.184,20.996,4.395,22.949
21.484,16.113,27.344,14.16,-2.93
26.367,19.043,40.039,23.926,25.391
19.531,18.066,40.527,18.066,64.453
4.883,13.672,33.691,12.695,49.316
-7.812,10.254,27.832,4.883,-26.367
20.996,11.719,37.598,9.766,-69.336
34.668,17.578,39.551,22.949,40.527
20.02,21.484,38.574,18.555,56.641
10.254,24.902,40.527,15.625,48.828
-2.93,27.832,39.551,9.766,55.664
19.043,29.785,46.387,13.184,34.18
46.875,30.273,45.898,24.414,27.344
28.32,28.32,43.457,16.113,61.523
9.277,22.461,44.922,8.789,30.273
2.441,16.602,40.527,9.766,-38.086
16.602,17.578,37.109,10.254,-2.93
36.621,21.973,42.969,22.461,60.547
22.949,21.973,40.527,33.691,80.566
6.348,17.578,31.25,21.484,69.824
-10.254,14.16,22.461,0.488,57.129
-2.93,12.207,19.043,1.465,48.828
26.855,12.207,23.438,12.695,23.926
24.414,12.695,20.02,11.23,-13.672
9.277,12.207,19.043,13.184,-14.16
-10.254,12.695,17.578,12.207,-8.301
-5.371,11.719,18.066,6.836,1.465
21.973,10.254,22.949,12.207,40.527
19.043,7.324,18.555,11.23,60.547
0,8.301,15.137,4.883,44.922
-16.602,8.301,16.113,0,39.062
-4.883,10.742,18.555,3.906,63.965
33.691,15.625,21.484,7.812,33.203
35.156,17.09,23.926,8.301,13.672
13.672,14.648,25.879,9.766,-5.371
-2.441,10.254,26.367,-0.977,-19.043
-9.277,12.207,24.414,-4.883,-7.812
14.16,13.184,30.762,7.324,36.621
31.25,12.695,35.645,17.578,37.598
24.414,12.695,35.156,16.113,-14.648
14.16,10.254,29.785,11.23,-33.691
3.418,7.812,25.879,14.16,10.254
20.508,6.836,32.715,11.23,47.363
28.32,3.418,35.645,9.766,55.664
18.555,4.395,27.832,10.742,29.297
6.348,9.766,23.438,5.371,36.621
-1.465,8.301,24.902,5.371,43.945
31.738,8.301,25.879,13.672,35.156
44.434,9.766,20.02,16.113,20.508
20.02,7.324,19.531,8.789,5.859
5.859,6.348,23.926,6.836,64.941
2.441,5.859,20.996,-3.906,32.227
18.066,6.348,23.926,-4.395,-9.277
25.391,9.277,22.949,14.648,-9.277
15.137,11.719,24.414,16.602,-7.324
2.93,15.137,31.738,10.254,36.621
-13.184,13.672,28.809,1.953,40.039
3.906,14.16,30.273,-1.953,30.762
27.832,19.531,32.227,2.93,66.895
21.973,17.09,28.809,11.23,74.707
6.836,12.695,21.973,14.648,58.594
0.977,11.719,15.625,6.348,94.727
12.207,9.277,19.531,7.812,83.496
26.855,12.695,21.973,20.02,27.832
18.555,15.137,23.926,23.438,17.09
2.441,9.766,26.855,12.207,23.926
-8.789,6.836,22.949,5.371,58.594
-4.395,6.348,22.949,8.789,55.176
19.043,7.324,28.32,15.137,-54.199
18.555,8.301,25.391,20.508,-26.367
9.277,10.742,24.414,12.207,46.387
-7.324,7.324,20.02,-2.93,17.09
-16.113,4.883,17.09,-8.789,-7.812
14.16,5.859,21.484,-0.488,54.199
15.625,4.883,22.949,10.742,48.34
-5.371,0.488,24.902,0.977,-2.93
-13.672,-2.93,17.09,-3.418,3.906
-17.578,1.465,11.719,0.488,11.719
7.812,6.836,18.555,5.371,30.273
19.531,10.742,11.23,17.09,49.316
0.977,10.254,11.23,11.23,62.5
-5.371,5.371,11.719,-0.977,26.855
-13.184,3.906,12.207,-2.93,-30.273
-2.93,2.441,21.973,4.395,-27.832
9.277,0.977,21.484,15.625,-38.574
6.348,1.953,25.391,20.508,-11.23
-1.465,1.465,29.785,14.16,-7.812
-4.883,1.953,32.715,10.254,-35.645
22.461,4.883,36.621,15.625,34.668
36.621,2.93,30.273,20.02,13.184
17.578,3.418,26.367,13.184,-25.879
5.859,4.395,24.414,5.859,11.23
6.348,2.93,14.16,6.348,39.551
23.438,6.836,15.137,11.23,72.266
34.18,11.23,22.949,22.461,76.66
19.043,7.812,19.531,24.414,36.133
3.418,6.348,11.719,20.02,8.789
-6.348,8.789,-0.488,15.625,71.777
7.324,6.836,0.488,6.836,49.805
28.32,7.324,5.859,7.324,30.273
16.602,8.301,0.977,18.555,20.02
-3.418,5.371,2.93,15.137,13.184
-6.836,5.859,1.465,-1.953,61.523
2.93,7.812,5.859,-8.301,25.391
15.137,9.277,11.719,-3.906,-43.457
16.602,11.23,10.254,5.859,-21.484
4.395,9.766,6.836,7.324,-32.715
-15.137,8.301,2.93,0,-71.289
-2.93,5.859,12.207,7.324,-59.57
29.297,6.348,24.414,24.414,4.395
28.809,8.789,23.926,29.297,91.797
18.555,9.766,20.996,18.066,15.625
11.23,10.254,19.531,8.789,-49.316
14.16,13.184,22.461,10.742,-6.836
36.621,14.16,23.438,20.02,-6.836
39.551,15.137,19.531,18.066,-9.766
20.996,14.16,17.578,13.672,-16.113
4.395,10.254,12.695,12.695,-32.715
-0.977,10.254,17.09,6.836,41.992
23.926,14.16,25.879,13.672,89.355
34.668,14.648,22.461,20.02,29.785
18.555,15.625,16.113,16.113,43.945
3.906,16.602,15.625,10.742,66.406
0,14.648,14.648,-9.766,103.027
27.832,14.16,16.113,-12.207,126.465
43.945,19.531,18.555,10.742,93.262
28.32,23.438,18.066,11.719,103.516
10.254,18.066,12.207,5.371,81.543
2.93,11.719,15.137,4.395,-2.93
17.578,13.672,25.391,6.836,34.18
24.902,16.113,23.926,20.02,75.195
14.16,12.207,20.508,19.531,0
1.465,8.789,15.625,11.719,-25.879
-8.789,6.836,8.789,7.812,27.344
12.207,5.859,12.695,8.789,3.906
39.062,7.324,13.672,19.531,-23.438
20.02,7.812,8.789,20.996,4.395
5.371,8.301,8.301,13.184,44.922
0.488,8.789,5.859,6.348,31.738
11.719,9.766,4.883,2.93,1.465
29.785,12.695,4.883,10.742,8.789
15.137,12.695,7.812,11.23,22.461
-0.488,8.789,5.371,5.371,38.086
-10.742,5.371,0.488,-2.441,39.062
-2.93,1.465,1.465,-9.766,-0.977
18.555,0.488,9.277,8.301,24.414
11.719,5.859,13.672,16.113,59.082
-1.953,9.766,12.695,5.371,13.672
-5.371,8.301,7.324,-5.859,-11.23
2.93,6.836,11.23,-12.695,10.742
20.996,11.719,22.461,-1.465,17.09
13.672,14.648,19.531,16.113,34.18
-4.883,15.137,15.625,16.113,34.668
-10.742,15.137,14.648,8.301,40.527
-2.441,17.578,15.137,15.137,-18.555
25.879,20.02,23.438,22.461,-18.555
31.738,21.484,23.438,32.715,14.16
6.348,22.461,24.414,33.203,-26.367
-4.395,19.531,27.832,18.555,-43.457
2.93,16.113,27.344,8.301,-29.297
31.25,18.555,37.598,18.555,14.16
41.992,18.555,36.133,26.367,37.109
25.879,16.113,27.344,22.461,49.316
7.324,17.578,21.484,14.648,29.785
-1.465,19.531,21.484,10.742,7.324
25.391,18.555,28.809,20.02,-2.441
38.574,17.09,30.273,20.508,-23.926
24.414,14.648,25.391,20.02,-7.324
9.277,10.742,23.926,16.602,-21.484
-0.488,15.625,28.809,3.906,-7.324
20.02,20.508,35.156,3.906,71.777
35.156,14.648,31.738,12.695,27.344
20.508,9.766,28.32,14.648,-37.109
4.883,10.742,29.785,7.812,-20.508
-11.23,10.742,25.391,0,-22.949
14.648,13.672,24.414,3.906,13.672
29.785,18.066,27.344,17.578,30.273
16.113,20.508,27.344,16.113,75.684
12.207,17.578,24.414,7.812,9.766
-5.371,11.719,20.508,3.906,-15.625
4.883,13.672,19.043,-1.465,-16.113
26.367,17.578,20.508,8.301,-15.625
18.066,16.602,20.996,12.207,32.227
6.348,17.09,17.578,2.441,70.801
-7.324,14.16,18.066,-0.488,145.508
3.906,14.648,23.438,6.836,59.57
31.25,20.02,25.879,17.578,-42.969
18.555,24.414,24.414,14.16,14.16
8.789,28.809,21.484,11.23,64.453
-4.883,22.461,21.973,1.953,48.34
-1.465,19.043,26.367,-2.441,-6.348
25.879,21.484,28.32,8.301,28.32
24.414,14.648,21.973,8.789,57.129
12.695,12.207,20.02,8.301,20.996
-3.418,15.137,15.137,2.441,8.789
-2.441,13.184,11.23,-8.789,-30.762
11.23,11.719,23.438,-8.301,-39.062
13.184,12.207,27.344,-0.488,20.02
15.137,12.695,25.391,7.324,51.27
-2.441,8.789,22.949,2.441,28.809
-22.461,7.324,23.926,-8.789,46.875
3.418,8.789,28.32,-7.324,36.621
7.324,7.324,28.32,6.348,46.875
-8.301,6.348,25.879,5.371,52.246
-14.648,3.906,16.113,-8.789,0.488
-28.32,1.953,16.602,-8.301,39.551
-4.883,-0.977,20.508,0.488,54.688
15.625,-3.418,18.066,8.301,43.457
0.488,-0.488,16.602,10.742,-6.836
-14.16,-0.977,17.578,6.836,-30.273
-23.926,-2.93,16.602,0.977,28.32
0,1.953,20.02,-4.395,23.438
17.09,1.465,30.273,4.395,22.949
-2.441,0,32.227,10.742,29.785
-15.137,0,28.32,1.465,14.648
-23.438,-3.418,28.32,-10.742,63.965
-4.395,-5.859,31.25,-10.254,109.863
22.949,-3.906,31.25,-0.488,64.453
9.277,-2.441,26.855,4.395,7.812
-13.184,-0.977,20.996,5.859,-36.133
-18.555,-1.465,15.625,1.465,4.395
0,0.977,23.926,-4.395,65.43
19.531,3.418,33.203,9.766,53.223
4.395,0.977,29.785,13.672,16.113
-9.277,1.465,25.879,4.395,-5.859
-17.09,3.906,24.414,-1.953,-0.488
-9.277,4.883,24.902,3.418,-11.719
20.02,5.859,25.879,17.09,-28.32
31.738,8.301,23.926,21.973,-10.742
10.742,8.301,21.973,18.555,-12.207
-19.531,6.348,22.461,3.418,10.742
-8.789,4.395,22.461,-1.953,10.742
20.996,3.418,21.973,8.789,28.809
14.648,4.395,17.578,9.277,62.988
0.488,3.418,19.043,5.859,64.941
-13.672,-0.977,23.926,0,23.926
-14.648,-1.465,26.855,-9.277,12.207
20.996,-1.953,30.762,0.977,-8.301
30.762,-0.488,32.227,11.23,-13.184
15.625,4.395,29.785,4.883,52.246
-1.953,2.93,21.973,-1.953,16.113
-11.23,1.953,20.02,-7.812,22.949
19.043,9.766,26.367,3.418,42.969
21.484,12.207,30.273,16.602,-18.555
-0.488,12.695,35.645,1.953,17.578
-4.883,15.137,34.668,-1.953,55.176
-3.906,18.555,32.227,3.906,-6.348
20.02,23.926,35.645,4.395,-34.668
29.297,22.461,32.715,12.695,25.879
7.812,18.066,32.227,15.137,75.195
-11.719,13.184,31.25,0.977,45.898
-20.02,12.207,29.297,-0.977,1.465
2.93,11.23,31.738,7.324,-9.277
16.602,12.695,31.738,5.371,51.758
-0.488,17.578,27.832,2.93,47.363
-8.301,19.043,28.809,3.418,-29.785
-14.648,20.02,29.297,-5.859,-20.996
0.977,20.996,25.879,-1.465,-16.602
29.785,25.391,27.344,12.695,20.996
23.926,20.02,23.926,13.184,38.086
12.695,16.602,16.113,19.043,-10.742
-2.441,20.02,17.09,13.184,-27.344
11.23,19.043,21.484,3.906,-19.043
43.945,20.996,20.996,16.113,17.578
27.832,21.484,19.043,21.973,25.879
5.859,17.578,17.578,18.555,40.527
7.812,16.113,23.926,5.371,49.805
14.648,17.578,27.832,3.418,11.719
24.902,20.02,26.855,11.23,41.504
22.949,14.648,24.414,11.23,17.09
10.254,9.766,22.949,5.859,13.672
3.418,10.742,24.902,0.488,96.68
10.742,11.719,24.902,5.371,35.645
23.926,13.184,24.414,18.066,-23.438
26.855,15.137,20.996,17.578,22.461
17.578,17.578,20.996,14.16,63.477
-7.324,16.113,15.137,2.93,45.898
-4.883,13.184,11.719,-4.395,20.02
30.273,13.184,14.648,4.883,20.02
38.574,16.113,12.207,13.184,-34.668
24.902,15.137,11.719,16.113,-39.551
15.625,16.602,5.371,13.672,-30.273
11.719,20.996,3.418,1.953,-42.48
31.738,24.414,16.113,1.465,-41.504
33.691,27.344,20.996,11.23,17.578
19.043,26.855,14.16,8.301,53.711
15.625,23.926,9.277,0.488,25.391
7.324,22.949,12.695,-1.953,1.953
21.973,23.926,22.461,6.348,-0.488
31.738,22.461,27.832,15.625,9.277
20.508,20.508,24.414,12.207,-1.465
6.348,13.672,11.23,6.836,-35.156
-0.488,10.742,9.766,-5.371,-32.715
11.23,15.625,19.531,-5.859,9.277
29.297,16.602,21.484,9.766,-4.395
32.715,17.09,16.602,6.836,-30.273
15.137,15.137,11.719,-2.93,-6.836
-6.348,9.277,13.184,0.488,54.199
5.859,10.742,20.508,6.836,58.105
31.25,17.09,24.902,9.277,5.371
28.32,15.625,23.926,9.277,-14.648
11.719,15.137,20.996,13.184,1.465
-7.812,15.625,20.508,3.418,5.859
3.906,16.602,22.949,-0.488,85.449
26.367,19.043,21.973,20.508,101.074
21.484,16.113,20.996,20.508,40.039
8.789,14.16,16.602,15.625,34.668
-0.488,17.578,7.812,11.23,29.785
4.883,17.578,15.137,7.324,38.086
27.832,16.602,23.926,18.066,-5.859
32.227,15.137,20.508,27.832,-34.18
4.395,14.16,20.508,20.508,50.293
-9.277,12.695,20.996,4.883,70.801
-7.324,9.766,20.996,-0.488,22.461
10.254,12.207,26.367,8.789,11.23
21.484,13.184,28.809,20.996,-14.16
13.184,10.742,22.949,16.602,-39.062
-13.184,10.254,8.789,0.977,5.859
-17.578,11.23,9.766,-0.488,50.293
9.277,12.695,20.508,9.277,27.344
13.184,13.672,15.137,16.602,-20.996
9.277,14.648,12.695,7.324,-28.32
-1.465,16.602,12.695,-2.93,10.742
-7.812,20.508,8.789,4.395,55.664
20.996,21.484,12.207,13.184,56.152
23.926,21.484,15.625,12.207,63.477
0.488,23.926,12.207,11.719,71.289
-12.695,20.996,6.348,8.789,60.059
-14.16,18.066,1.465,0.488,32.715
7.324,18.555,2.93,0.977,8.301
22.461,20.02,-1.465,12.207,-24.902
11.719,19.043,-4.883,16.602,1.953
0,17.09,-5.371,7.812,42.48
-4.883,18.555,-5.371,4.395,-23.926
10.254,20.996,0,7.324,-3.418
27.832,23.438,5.371,5.371,48.828
13.672,21.973,11.23,3.906,48.828
-1.465,18.555,11.719,-2.93,12.695
-7.812,16.602,9.277,-3.418,-10.742
11.23,19.531,16.113,-0.488,29.297
32.227,25.879,19.043,6.348,20.02
22.461,24.414,13.672,12.695,-18.555
17.09,22.461,12.695,12.207,-16.602
4.395,20.508,15.625,-1.953,42.969
12.207,20.996,19.531,1.953,23.926
39.062,22.949,23.438,15.625,-3.906
41.504,25.391,20.996,22.461,3.906
31.25,25.879,17.578,26.367,20.02
5.859,22.949,16.113,16.602,35.645
0.977,20.996,19.531,6.836,-3.418
28.32,20.996,23.926,11.719,-63.477
40.039,18.066,29.297,20.996,-70.801
32.227,16.602,35.156,18.066,-26.855
6.836,13.184,30.762,10.742,6.836
8.789,11.23,31.25,12.695,-6.836
38.086,14.16,31.25,15.137,6.348
35.645,15.137,30.273,11.23,13.672
11.719,16.602,30.273,2.93,8.301
-4.395,18.555,15.625,-8.789,-5.371
2.441,19.043,8.789,-13.184,-11.23
26.855,21.973,18.066,-0.977,40.527
38.574,25.879,18.555,6.348,86.426
27.344,28.32,19.531,4.395,39.551
7.812,26.855,16.602,-1.465,2.93
3.906,24.902,16.113,-4.395,31.738
24.414,24.414,27.344,3.418,5.371
38.574,24.902,27.344,15.137,12.695
31.25,26.855,24.414,21.484,75.195
21.484,23.926,18.066,9.766,59.082
9.277,25.391,13.672,7.324,24.414
33.203,26.367,15.137,12.207,55.664
45.41,26.367,16.113,12.207,41.992
22.461,28.32,14.16,13.672,52.734
11.719,23.438,7.812,18.555,22.461
7.324,23.926,9.277,12.695,25.391
19.531,27.832,18.066,5.859,38.574
39.551,27.832,17.578,13.672,-3.418
29.785,29.785,16.113,19.043,6.348
9.766,26.367,19.531,24.414,34.668
2.441,21.484,23.926,15.137,-11.719
17.09,22.461,28.809,5.371,-18.066
37.109,23.438,31.738,22.461,-45.898
24.902,25.879,36.621,20.996,-8.789
7.324,27.344,35.156,-0.488,47.852
-3.418,25.879,33.203,-1.953,52.734
5.371,22.949,36.133,2.93,91.309
28.32,26.855,32.227,10.254,51.758
24.414,31.738,29.785,16.113,18.555
11.719,27.344,25.879,19.043,36.621
0,24.414,18.555,10.742,33.203
5.859,25.391,24.414,8.301,19.531
33.203,22.949,26.855,21.973,0.488
31.738,20.996,22.461,19.043,21.484
16.113,21.484,22.461,18.555,59.57
3.906,14.648,20.508,10.254,90.332
6.348,12.695,24.902,1.953,26.367
30.762,12.207,24.414,11.719,-37.598
26.367,10.254,20.02,17.09,-20.996
10.742,14.648,21.973,11.719,80.566
-5.371,12.207,8.789,5.371,76.66
-7.812,7.812,5.371,-0.488,24.902
16.113,7.812,16.602,2.441,23.926
16.602,6.836,15.625,10.742,-9.277
3.418,7.324,11.23,4.395,3.906
-13.672,6.836,7.812,-6.348,-0.488
-20.996,2.93,9.766,-16.113,-70.312
7.812,2.441,21.484,-8.301,-14.16
14.648,7.324,23.438,1.465,34.668
-4.883,11.23,20.508,-1.465,41.504
-7.324,13.672,16.602,-3.418,24.414
-8.789,18.066,18.066,-5.371,-9.766
14.648,23.926,31.25,5.371,1.953
37.109,24.414,30.762,20.02,23.926
27.344,22.949,28.809,19.531,43.945
11.719,24.902,25.391,14.16,20.508
2.93,25.879,26.367,5.371,-3.906
27.344,24.414,28.809,6.836,6.348
43.945,24.902,27.344,17.09,50.293
20.02,26.367,32.715,19.531,-13.184
11.719,28.32,37.109,19.531,-8.789
7.812,23.926,35.645,2.93,91.797
23.438,18.066,35.156,-4.395,63.965
40.527,17.09,36.621,11.23,18.555
22.461,16.113,34.668,6.836,21.484
-2.93,12.695,33.691,-1.465,62.988
-18.066,9.766,27.344,-5.371,66.895
0,18.066,32.227,-7.324,17.09
20.996,25.391,43.945,2.93,2.441
8.301,23.438,39.551,2.441,51.758
-6.836,18.066,29.297,-8.301,44.434
-19.043,17.578,25.879,-7.812,26.855
-12.207,20.508,27.832,0,-14.648
19.043,22.949,28.32,9.277,-39.551
18.066,21.973,25.879,20.508,25.391
7.812,21.973,25.879,15.137,48.34
5.371,20.996,30.273,10.254,48.828
9.766,18.555,35.156,7.812,10.742
34.18,21.484,38.086,15.137,18.066
38.574,21.973,40.527,29.297,1.953
21.484,20.508,37.598,29.785,31.738
6.836,13.184,28.32,11.23,65.43
0.488,12.207,32.227,7.324,23.926
21.973,17.09,39.062,15.625,-19.043
27.832,18.555,34.668,16.113,1.465
10.254,20.02,33.691,19.531,75.195
-4.883,21.484,36.621,15.625,41.992
-1.953,25.391,35.156,5.371,2.93
27.344,25.391,34.668,6.836,33.691
33.691,22.461,34.668,16.602,14.648
17.09,20.508,32.715,13.184,10.742
-1.465,19.531,23.926,-1.465,92.285
-7.324,18.555,20.02,-14.648,53.711
14.16,20.508,27.344,-8.789,21.484
27.832,22.461,29.785,8.301,49.805
17.09,22.949,28.809,9.766,70.312
3.906,22.949,20.02,6.348,45.898
5.371,23.438,14.16,5.371,-44.434
32.715,25.391,18.066,9.766,-27.344
47.852,23.926,24.414,17.578,45.41
35.645,22.461,25.879,20.02,23.926
19.531,21.484,21.973,16.602,-31.738
5.859,18.066,15.625,4.395,-26.367
24.902,20.996,20.996,8.789,12.695
41.016,22.949,23.926,19.043,7.812
29.785,21.973,20.02,12.207,8.301
20.02,22.949,17.09,14.648,-13.672
0,20.508,19.043,6.836,-16.113
11.23,19.043,20.508,-2.441,40.039
34.18,20.508,16.113,4.883,26.855
28.32,20.508,15.625,9.277,-2.441
14.16,21.484,16.113,3.906,-2.93
-12.695,20.02,8.301,-6.836,18.066
-2.441,20.508,10.254,-10.742,-12.695
29.785,23.438,18.066,-8.789,2.441
14.16,20.508,19.531,-8.789,32.715
-5.859,20.508,22.461,-5.371,22.461
-13.672,23.438,25.879,-9.277,40.039
-9.277,24.414,35.645,0,37.598
23.926,20.996,42.48,16.113,20.508
29.297,17.09,39.551,16.602,0.488
14.648,16.113,36.133,7.324,12.695
3.418,12.207,28.809,-5.859,60.547
4.395,12.695,24.414,-4.883,39.551
24.902,20.02,30.762,5.859,22.461
31.738,21.484,32.715,14.648,42.969
23.926,22.949,28.809,17.09,40.039
9.766,24.902,25.879,9.277,-32.227
9.766,24.414,27.832,-0.488,-67.383
33.691,23.926,31.25,-0.977,-31.25
36.621,20.02,35.156,5.859,-5.859
17.578,17.578,31.25,3.906,45.898
8.789,17.578,24.414,2.441,54.199
6.836,18.066,28.32,-0.488,23.438
25.391,19.043,33.691,-1.953,13.184
33.203,19.531,28.809,1.465,31.738
12.695,20.02,23.438,0,34.668
9.277,19.531,18.555,-0.977,54.199
-1.465,16.602,20.996,-8.789,41.504
6.836,16.602,28.32,-5.859,-14.648
23.438,17.09,24.902,0.488,26.855
18.066,14.16,19.043,6.836,45.898
11.23,12.695,18.066,8.301,17.578
9.277,10.254,27.344,0,-23.438
25.879,11.23,29.785,1.465,-32.715
33.203,17.09,26.855,16.113,3.906
31.738,20.508,31.25,23.926,2.441
27.344,22.461,32.715,17.578,-2.441
3.418,21.484,31.738,9.277,12.207
14.648,21.484,34.18,4.395,-11.23
41.992,19.531,35.156,6.348,48.828
30.273,17.578,30.273,14.648,57.617
20.02,20.02,30.762,16.602,63.965
7.812,20.02,30.762,4.883,46.387
10.254,19.531,32.227,-5.371,-11.23
30.273,22.461,34.668,6.348,16.602
20.996,20.508,27.344,17.578,22.461
5.371,19.531,21.973,14.16,22.949
-4.883,17.578,23.438,-1.953,46.387
1.465,14.648,25.391,-11.23,90.332
25.879,17.09,26.855,3.906,76.66
27.832,16.113,27.832,12.695,20.02
14.648,14.16,25.879,19.531,51.27
-2.441,17.578,21.484,13.184,42.48
1.465,19.043,20.996,5.371,40.039
35.645,18.555,25.391,8.789,27.832
44.434,20.996,28.32,17.09,36.621
27.344,21.973,30.762,24.414,73.73
0.977,23.438,33.691,6.348,66.406
-0.488,22.461,29.785,7.324,55.664
30.762,20.02,26.367,29.785,63.477
44.922,19.531,24.414,30.273,19.531
22.949,15.137,22.949,15.137,-46.875
-3.418,11.719,19.043,1.465,5.859
-10.254,12.207,18.066,-5.371,35.156
18.066,16.602,22.461,4.395,18.066
33.203,16.113,22.461,13.672,11.719
22.949,12.695,20.996,16.113,3.906
13.184,13.184,19.531,15.137,-5.371
0.488,16.113,23.926,9.766,32.227
19.043,19.043,31.738,9.766,46.875
41.016,18.555,29.297,30.273,-32.715
30.273,22.949,30.273,32.715,-11.23
12.695,24.414,27.344,11.719,-1.953
2.93,16.602,20.996,0,-24.414
15.625,14.16,27.344,0.488,-9.277
38.574,21.484,29.785,18.555,-6.836
29.297,23.926,28.32,25.391,5.371
15.625,22.461,30.273,19.531,25.879
4.395,24.902,30.762,14.16,90.332
7.324,22.461,29.297,13.672,34.668
31.738,22.949,33.691,23.926,15.625
21.973,21.973,34.668,25.879,3.906
4.395,13.184,28.809,19.043,-34.668
-8.789,12.695,24.414,10.742,7.812
-4.883,18.066,29.297,8.301,12.207
23.438,20.02,35.156,14.648,34.668
13.672,15.625,29.785,17.578,61.523
2.93,14.16,25.879,19.043,38.574
-12.207,14.648,23.438,7.324,35.156
-15.625,16.113,21.973,6.348,18.066
23.926,18.555,22.461,19.531,2.93
26.367,18.555,19.531,17.09,13.672
15.137,17.578,19.531,10.742,33.203
-4.395,8.789,20.508,4.883,14.16
-14.16,3.906,18.066,0,-6.836
13.672,5.859,24.414,10.742,2.93
18.555,8.301,31.25,20.508,24.902
9.766,11.23,29.297,15.625,40.039
-7.324,7.812,25.879,10.742,50.781
-16.113,2.441,18.066,1.465,47.852
8.789,1.953,12.695,2.441,43.945
19.531,0.488,14.648,16.602,45.41
7.324,-0.488,19.531,14.16,33.203
-2.93,-1.953,15.137,1.953,54.688
-5.371,-0.488,17.578,-3.418,71.289
17.578,3.418,23.926,-2.441,25.391
26.367,4.395,21.484,8.301,-1.465
13.184,6.836,24.414,10.254,3.418
2.93,6.348,27.344,0.488,-42.969
-12.207,4.395,30.273,-3.418,-9.766
2.93,7.324,35.645,3.906,5.371
29.297,12.207,36.621,9.766,-46.387
20.508,12.695,34.668,11.719,-36.621
8.789,10.254,25.879,10.742,16.602
-0.488,10.742,16.602,-0.488,42.969
14.648,12.207,13.672,-0.488,2.441
38.086,7.812,11.23,11.719,-17.578
28.809,6.348,5.371,13.184,-24.414
14.16,10.254,1.465,8.789,18.555
-5.859,12.695,3.906,4.395,15.625
3.418,10.742,12.695,6.836,-35.645
35.645,10.254,17.578,17.578,-1.465
29.785,9.766,16.113,14.648,-0.977
17.578,9.766,20.02,9.277,30.273
7.324,10.254,16.602,3.418,77.148
5.371,8.789,14.648,-2.441,7.324
27.832,8.789,13.672,3.906,-43.945
27.832,9.277,15.137,13.184,3.418
9.766,10.254,15.625,13.672,37.109
-7.324,10.742,12.695,8.789,28.32
8.789,13.184,20.02,16.113,8.789
44.434,18.555,22.461,21.973,4.395
37.109,20.02,18.555,15.137,22.461
13.672,19.531,12.695,10.254,20.996
0,20.02,12.207,9.277,20.02
0.488,17.578,18.066,7.812,4.395
27.832,16.113,21.973,4.883,5.371
33.203,12.207,25.391,12.695,-12.207
15.137,11.23,25.879,18.066,-28.32
7.812,11.719,20.02,8.789,5.371
2.93,11.23,20.996,12.207,56.152
27.344,12.695,24.414,23.926,66.406
39.062,11.23,21.484,20.02,43.945
20.02,9.277,21.484,15.625,21.973
4.883,6.348,15.137,16.602,30.273
-7.324,3.418,16.602,13.672,49.805
23.438,9.277,24.414,20.02,26.367
42.48,14.16,23.926,24.902,41.016
19.043,13.184,23.926,27.344,15.137
-1.465,12.207,23.438,20.996,5.371
-11.23,8.789,25.879,7.812,-13.672
10.254,7.812,31.25,4.395,59.082
28.809,9.766,29.785,13.184,89.355
21.973,6.836,18.066,20.508,49.805
11.719,5.859,7.812,11.719,24.414
-1.465,6.836,7.324,2.441,-49.316
12.207,7.324,12.695,0.977,-22.461
30.762,10.254,12.207,14.648,72.266
25.391,8.789,12.695,17.09,93.262
13.184,7.324,11.719,8.789,54.199
-4.883,7.324,11.23,2.93,3.418
9.277,9.766,15.625,-0.488,-36.133
34.18,15.137,17.09,10.254,-23.438
22.949,16.113,20.508,20.508,20.996
8.301,16.113,21.484,19.043,32.715
-2.441,14.648,12.207,7.812,-38.574
3.418,11.719,13.184,1.953,-51.27
30.273,12.695,21.973,15.625,-15.625
29.785,17.578,25.391,15.625,-10.254
13.672,17.578,22.949,4.883,-2.441
-2.93,14.648,15.625,-0.488,-1.465
3.418,15.625,15.137,-3.906,10.254
27.832,20.508,20.02,2.441,47.363
26.367,22.461,13.672,13.672,43.457
9.766,21.484,12.695,17.578,21.484
-1.465,21.484,16.602,5.371,43.457
2.441,22.461,17.578,1.465,70.312
26.855,19.043,20.996,7.324,21.484
25.391,13.672,20.02,7.812,33.691
8.301,17.09,21.484,6.836,51.758
1.953,17.09,17.578,-2.93,45.41
-7.324,15.137,12.695,-5.859,34.18
16.602,17.09,17.578,8.301,2.441
30.762,16.602,21.973,10.254,14.16
14.648,17.09,22.461,5.859,14.16
2.441,17.09,19.531,10.254,-1.953
-0.977,17.09,19.043,13.672,51.758
23.438,22.949,18.555,17.578,81.055
37.598,23.926,15.137,23.438,12.207
23.926,23.926,17.09,25.879,-0.488
9.277,24.902,16.113,11.719,23.438
-0.488,22.461,18.066,0,7.812
13.672,21.973,29.297,7.812,-5.371
26.855,20.996,32.227,21.484,15.625
25.391,19.531,26.367,15.625,1.953
13.184,20.02,18.066,7.324,15.137
-10.254,19.043,13.184,0.488,-8.789
3.418,20.508,21.973,-6.348,-34.668
29.785,22.949,27.832,0.977,80.078
23.926,23.438,26.367,-1.465,41.992
15.137,25.879,25.391,-10.254,4.883
4.395,27.344,22.461,-8.789,47.363
12.695,28.32,20.996,-6.836,-8.789
33.691,25.879,20.996,-5.371,-0.977
22.949,25.391,20.508,-2.93,15.137
14.16,21.484,19.043,4.883,45.898
0.977,11.719,16.113,2.93,27.344
7.324,10.742,22.949,-2.93,10.254
34.668,12.695,29.297,1.465,48.34
24.902,16.602,27.344,0,53.711
5.859,17.578,24.902,-3.418,67.383
-9.766,10.254,19.531,-9.766,0
-7.812,8.789,22.461,-3.418,18.066
18.066,11.719,21.484,3.906,68.848
19.043,12.207,14.16,4.883,31.738
13.184,13.184,13.184,-1.953,35.645
-3.418,12.695,12.207,-14.648,24.902
-15.625,12.207,18.555,-15.137,5.371
18.066,12.207,26.855,-6.836,-1.465
28.32,16.602,31.738,-2.441,42.969
13.184,20.996,36.133,3.418,84.473
3.418,15.625,30.762,-0.488,69.336
-3.906,13.184,29.785,-9.766,30.273
18.555,13.672,36.621,-2.441,-10.742
28.809,10.742,31.25,1.953,-19.531
9.277,9.766,25.391,3.906,-20.508
-4.883,10.254,16.113,-0.977,4.395
-7.324,9.766,17.578,-8.301,27.832
16.113,12.695,26.367,5.859,-16.602
31.738,19.043,28.32,20.996,-13.184
25.879,21.973,32.715,22.949,1.465
13.184,25.879,26.367,18.066,27.832
-2.441,24.902,22.461,14.648,24.902
14.16,20.508,24.902,12.207,4.395
26.367,18.066,21.973,14.16,-16.113
12.695,17.09,23.926,13.184,-66.895
3.906,19.043,27.344,8.789,-16.602
-6.348,16.602,26.367,3.418,100.586
5.859,11.719,25.391,4.395,65.918
26.367,13.184,28.809,8.301,37.598
21.973,14.16,30.762,3.418,80.566
6.836,7.812,27.344,7.324,35.645
-14.648,1.953,26.367,-4.395,-10.742
-4.395,6.836,29.785,-8.789,10.254
28.32,12.207,27.832,13.672,31.25
23.438,11.23,25.879,10.742,19.043
10.742,10.742,28.32,2.441,-42.48
8.789,12.207,29.297,4.395,-12.695
11.23,12.207,30.273,7.812,71.777
30.273,12.695,33.203,10.742,79.102
24.414,11.23,32.227,8.301,57.617
1.465,9.277,33.691,4.883,25.391
-10.742,7.812,35.156,-1.953,43.457
-9.277,10.742,40.039,-6.836,68.359
19.531,12.207,43.945,2.441,62.988
21.973,15.137,40.527,8.789,16.602
2.441,17.09,37.109,7.812,-0.488
-15.137,13.672,33.691,8.301,-12.695
-15.137,11.23,35.645,-1.953,20.02
12.695,9.766,40.527,-3.418,18.555
19.043,15.625,38.086,8.789,-33.203
13.672,17.09,34.18,10.742,7.812
0.977,15.137,31.25,1.465,57.617
-10.254,14.16,26.367,-1.465,66.406
17.578,11.23,27.832,11.23,25.391
24.414,10.254,26.855,11.719,28.32
5.859,9.766,28.32,4.883,44.922
2.441,9.277,28.32,-1.953,28.32
-6.836,11.23,35.156,-9.277,22.461
13.672,17.09,42.969,0,28.32
37.109,21.973,35.156,6.836,45.41
16.113,21.973,33.203,14.16,30.762
-6.836,18.555,33.691,13.672,11.23
-17.09,18.555,35.156,-5.371,2.93
1.465,17.578,37.598,-3.906,11.23
27.344,15.625,34.668,9.277,13.184
19.043,13.672,28.32,14.648,9.277
-4.883,5.859,20.508,3.418,-40.039
-10.742,2.441,21.973,-8.301,-20.02
11.23,4.883,26.855,-2.441,35.645
36.133,2.441,26.855,9.277,-16.602
27.344,2.93,22.461,13.184,-56.152
2.441,4.883,19.043,9.766,9.766
-13.184,0,20.508,1.953,18.555
0,-2.441,28.32,-2.441,-16.113
28.809,-2.93,27.832,10.254,-30.273
21.484,-5.371,28.32,12.695,-24.414
7.324,-7.812,28.32,2.441,49.805
-11.23,-8.789,24.414,-0.488,48.828
-6.348,-3.418,23.926,2.93,3.418
19.531,0.488,23.926,6.348,38.086
19.531,-1.465,23.438,8.789,45.898
8.789,-0.977,24.414,9.277,14.648
-10.254,0.488,24.902,5.859,27.344
-14.648,3.906,23.926,1.465,57.129
4.395,5.371,24.414,2.93,41.992
20.508,3.418,27.344,14.648,33.203
7.812,1.953,23.438,18.066,66.406
-8.301,2.441,19.043,4.883,37.109
-5.859,8.301,24.414,2.441,41.992
15.137,11.23,33.203,17.09,71.777
21.973,12.207,28.809,16.602,28.809
4.883,11.23,15.137,17.578,-25.391
-5.859,9.277,12.695,10.254,-38.086
-4.883,6.836,21.484,-8.789,41.992
19.043,5.859,24.902,1.465,48.828
26.367,5.371,28.32,12.695,10.742
14.16,7.324,29.297,16.602,75.195
8.789,10.742,20.996,13.184,61.035
3.418,13.672,18.066,0.977,-41.504
28.32,15.137,17.578,8.789,-2.441
46.875,14.648,13.184,21.973,43.945
33.691,13.672,10.742,22.461,26.367
20.508,10.254,7.324,8.789,18.066
0.977,10.254,8.301,-3.418,38.574
12.207,12.695,12.695,6.348,25.879
42.48,11.23,14.16,19.043,10.742
29.297,9.766,17.09,28.32,26.855
8.301,10.742,19.531,24.414,23.438
-2.441,11.719,20.02,14.16,2.441
9.766,12.207,19.531,15.625,-38.086
33.691,13.184,21.484,18.066,-20.996
20.02,13.672,20.508,16.113,18.555
9.766,10.742,15.625,13.184,6.348
-0.977,12.695,15.625,1.465,4.395
6.836,18.066,19.043,-1.465,41.992
26.855,18.555,17.09,13.184,24.414
20.508,20.02,12.695,13.672,-17.578
13.672,18.066,5.859,1.953,5.371
-0.488,14.648,1.953,-13.672,67.383
5.371,17.578,1.953,-15.137,12.695
31.738,21.484,2.93,3.906,-31.738
26.367,20.996,5.859,11.23,42.48
14.648,18.555,9.277,9.277,53.711
-3.418,20.02,8.789,0.977,38.574
0.488,22.461,13.184,-7.812,12.695
31.738,21.484,24.902,0.977,27.832
30.273,21.973,27.344,17.09,62.988
17.578,22.949,25.391,26.855,41.992
4.883,24.902,24.414,17.578,-14.16
7.324,25.879,31.25,10.742,-9.766
28.32,22.461,31.738,13.672,22.461
37.109,22.461,27.832,18.555,29.785
25.391,22.461,29.297,23.926,12.695
10.742,18.555,23.438,19.043,-15.625
8.301,15.137,20.996,6.836,-52.734
27.344,15.625,20.508,15.625,21.973
29.297,15.625,18.066,29.785,37.109
16.113,19.531,9.766,23.438,-5.859
3.906,20.508,-4.883,7.812,46.387
-6.348,19.531,-3.418,-1.465,41.992
22.461,22.949,9.766,6.836,-9.277
37.109,20.996,14.648,17.09,55.176
32.227,22.461,10.742,21.973,91.797
31.25,24.414,6.348,21.973,13.184
8.789,21.973,7.812,14.648,-8.301
18.066,21.973,11.719,15.625,1.953
41.504,19.531,11.23,19.043,27.832
33.691,17.09,11.23,21.484,16.602
16.602,16.602,10.254,21.484,0
-2.441,16.602,11.23,6.348,-17.578
9.766,21.484,21.484,4.883,-20.508
26.367,23.438,25.391,14.648,-10.254
25.391,22.461,21.484,19.043,21.973
18.066,22.949,18.066,20.996,41.992
-3.418,19.531,16.113,11.23,28.809
7.324,16.113,15.625,14.16,21.484
24.414,15.625,19.043,24.902,67.383
18.066,15.625,24.902,22.461,44.922
11.23,14.16,19.043,20.996,-0.977
-2.441,14.16,11.23,9.277,40.039
-1.465,13.184,17.578,1.953,37.598
18.555,13.184,22.461,8.789,-10.254
20.508,13.184,22.949,9.766,24.902
9.277,6.836,15.625,0.977,41.016
-15.625,0.488,9.766,-12.207,17.09
-11.23,3.418,20.508,-14.16,12.207
15.137,4.395,25.879,0.488,9.277
11.719,0.488,27.832,10.742,31.738
-1.465,1.953,27.344,9.766,37.109
-13.672,2.93,24.414,-6.836,30.762
-12.207,3.906,22.949,-9.766,19.043
22.461,7.324,22.461,6.836,38.574
25.391,10.742,24.902,14.16,29.297
4.395,12.695,28.32,18.555,23.926
-6.836,11.23,26.367,12.695,41.504
-6.836,9.277,27.344,5.371,16.113
16.602,11.23,27.832,8.789,71.777
25.879,9.766,25.391,11.719,54.199
12.207,10.742,30.762,16.113,11.23
0.488,8.789,30.273,12.695,77.148
-7.324,1.953,27.832,1.953,34.668
11.23,-1.953,26.855,7.812,-19.531
29.785,-0.488,23.438,18.066,33.691
11.719,3.418,20.996,8.789,52.734
-5.859,5.859,18.555,-2.93,30.762
-12.207,6.348,23.926,-13.672,-22.949
4.883,6.836,28.32,-5.859,-19.043
23.438,8.789,29.297,6.836,-9.766
19.043,8.789,30.762,12.207,51.758
3.906,7.324,28.32,12.695,75.195
-17.09,3.906,29.297,-3.418,34.18
-4.883,1.953,29.297,-0.488,62.012
25.879,0.488,24.414,9.766,-5.859
21.484,0.977,24.902,2.441,-48.828
2.441,2.441,22.461,-1.465,24.902
-7.812,3.906,25.879,-4.883,28.809
5.859,5.371,36.133,1.953,-2.441
33.691,6.348,40.527,17.578,-10.742
31.25,7.812,40.039,13.184,-20.508
12.695,9.277,34.668,7.812,15.625
-4.395,14.16,33.691,2.93,-22.461
-6.348,17.09,43.457,-0.977,-26.367
25.391,17.09,49.805,3.906,61.035
25.391,17.09,46.875,7.324,72.754
10.742,17.578,38.086,11.719,9.766
0.977,21.484,32.227,-1.953,-25.879
-0.977,20.996,33.691,-2.441,-5.371
28.809,18.555,32.227,16.602,44.434
25.391,18.555,33.203,14.648,1.465
10.742,17.578,33.203,10.742,-59.57
0.977,16.113,32.227,4.883,-10.742
-12.695,17.578,37.109,-4.883,5.859
9.766,18.555,37.109,2.441,27.344
22.949,18.555,30.762,13.672,7.812
8.789,18.066,23.438,13.672,-33.691
0,15.137,19.531,5.371,-12.207
-10.742,9.277,19.043,1.465,-21.973
3.418,11.23,26.855,4.395,-0.977
13.184,13.672,29.297,1.465,54.688
-1.465,13.184,26.855,1.953,23.438
-15.625,14.16,24.902,3.906,38.086
-21.484,14.648,24.902,-1.953,99.609
10.742,21.484,29.785,0,52.246
27.344,20.02,28.32,2.93,24.902
7.812,13.672,24.902,0.488,-6.836
-2.441,10.254,21.973,-1.465,-21.973
-15.137,6.348,22.461,-10.742,42.48
-1.465,5.859,26.367,-11.719,24.902
16.602,6.836,17.09,1.465,8.301
5.859,7.812,8.789,11.23,38.086
-3.418,9.277,8.789,3.418,4.883
-14.16,12.207,6.836,-10.254,15.625
-4.883,14.16,9.766,-8.301,63.965
17.578,12.695,9.766,1.465,52.246
13.184,12.207,2.441,2.93,49.805
-3.906,12.695,-3.418,1.953,34.668
-20.996,11.719,-4.883,-5.859,63.477
-14.648,11.23,-7.324,-10.742,34.668
10.254,13.184,-3.418,2.93,35.645
11.23,14.16,-1.953,10.254,72.266
5.859,14.648,-5.371,7.812,49.805
-7.812,13.184,-2.93,-2.93,44.434
-7.324,11.23,-3.418,-6.836,23.926
23.438,11.23,-4.395,6.348,-5.859
20.02,9.766,1.953,7.812,20.508
7.324,6.836,0,3.418,35.645
-10.254,7.324,-3.418,-1.465,-14.16
-4.883,10.742,-1.465,-9.277,8.301
29.785,7.812,3.418,-4.395,62.988
32.227,6.348,9.277,1.465,30.273
8.301,10.254,7.324,-2.93,37.598
-16.113,8.789,8.789,-6.836,65.918
-14.16,6.836,11.719,-14.16,-13.184
14.648,9.766,16.602,-9.277,-42.48
16.602,9.277,19.531,2.93,-26.367
0.977,5.859,16.113,-4.395,31.738
-15.625,2.93,9.277,-12.207,47.363
-25.391,2.93,5.859,-18.555,34.18
4.883,8.789,10.254,-18.066,79.102
25.391,13.184,5.371,4.883,28.32
6.836,9.277,0.488,12.695,-14.648
-5.859,4.883,-7.324,-3.906,-9.766
-13.184,4.395,-8.301,-8.789,-16.113
2.441,3.418,5.371,-2.441,-5.371
26.367,9.277,9.277,1.465,2.441
11.719,16.602,14.648,9.277,32.227
-6.348,15.625,11.719,7.324,28.809
-14.648,12.695,4.395,-8.789,25.391
6.348,13.672,-0.488,-7.812,45.41
29.297,11.719,0,1.953,4.883
20.508,10.742,7.812,3.906,17.578
10.254,9.277,0.488,4.395,43.457
1.465,12.207,-1.953,-0.977,-4.395
18.066,15.137,5.859,2.93,-59.57
36.621,15.137,10.742,13.672,-17.09
32.715,18.066,15.625,17.09,19.043
27.344,22.461,18.555,11.23,2.441
10.254,24.414,18.555,6.348,61.035
21.973,24.414,15.625,4.395,69.824
56.641,23.926,17.09,10.254,49.316
43.457,23.926,19.043,20.02,-1.953
18.066,21.973,14.16,17.09,-18.555
1.465,23.438,9.277,-0.977,4.395
4.883,26.855,13.184,-9.277,1.953
27.344,25.879,18.555,4.395,57.129
28.32,26.367,16.602,18.555,54.199
17.578,28.32,12.695,17.578,41.992
-4.883,31.25,13.184,-8.301,52.734
-3.906,31.738,14.16,-11.23,48.34
31.25,27.832,24.414,8.789,36.621
36.133,23.926,30.762,13.184,34.668
11.23,20.508,28.809,8.789,11.719
-7.812,21.484,33.203,-0.488,-13.184
-8.301,24.902,35.645,-0.488,15.137
16.602,25.391,29.785,1.953,8.789
21.484,24.414,22.461,2.93,52.246
9.277,24.414,15.137,9.277,76.172
0.488,20.508,5.371,-1.465,24.902
-9.277,20.508,9.277,-13.672,-1.953
10.742,24.414,22.949,-5.859,1.465
28.809,25.879,26.855,-5.859,-7.812
19.043,27.344,23.926,-11.23,31.25
4.883,27.344,18.555,-10.254,35.645
-7.324,28.809,18.066,-14.648,-13.672
9.277,31.738,23.438,-19.531,-34.668
25.879,33.691,28.809,-12.207,22.949
6.836,30.762,24.414,-13.184,79.102
0.488,28.32,16.113,-19.043,-5.859
-4.883,31.25,17.09,-17.578,-13.184
11.23,31.25,21.973,-14.648,-20.508
37.109,30.273,24.902,-10.742,2.441
22.461,29.297,20.508,-8.789,61.523
9.277,26.367,8.301,-6.836,20.508
-2.441,30.273,15.625,-15.137,22.461
12.695,35.156,29.785,-11.23,43.457
40.039,34.18,30.273,7.324,41.016
31.738,35.156,30.762,8.789,18.555
16.113,31.738,30.762,-9.277,-21.973
-3.418,27.344,28.809,-25.879,28.809
1.953,28.32,30.273,-19.043,33.691
28.32,29.297,33.691,-9.277,7.324
23.438,31.25,38.086,-7.812,35.645
11.23,27.832,35.645,-7.812,12.207
-3.906,25.391,28.809,-12.695,-27.832
-3.906,22.949,24.902,-21.484,-56.641
21.484,21.484,24.902,-19.043,-10.254
24.902,27.344,27.344,-7.812,21.973
6.348,27.344,23.438,-12.207,-1.465
-8.301,23.926,22.461,-26.855,18.066
-5.859,27.344,27.344,-25.879,49.805
24.414,30.273,23.926,-13.184,24.414
25.391,31.25,21.484,-11.23,36.133
7.324,28.809,23.438,-7.812,26.367
-3.906,25.391,24.414,-12.207,29.297
-3.906,21.973,19.043,-20.996,74.219
23.926,22.949,20.02,-13.184,11.719
27.832,27.344,21.973,-10.254,-9.766
17.09,24.414,20.02,0.977,1.953
9.277,18.555,19.043,-5.859,-76.66
5.371,17.09,20.02,-20.996,-60.059
24.902,15.137,20.996,-5.859,33.203
29.297,14.648,19.043,4.883,25.879
11.23,13.672,15.137,-5.859,20.508
2.441,8.301,7.812,-22.949,81.055
-4.883,12.207,6.348,-27.344,55.176
16.602,14.648,13.672,-16.602,-12.695
35.156,14.16,19.043,-4.395,46.387
23.438,17.09,16.113,5.371,116.211
10.742,18.066,13.184,1.953,28.32
0.488,19.531,14.648,-9.277,16.602
16.113,19.043,14.648,-6.348,87.891
29.785,13.672,15.625,0,53.711
29.785,11.719,23.438,-4.883,68.848
22.461,10.742,21.973,-9.766,88.379
1.953,9.277,20.996,-13.672,50.293
17.578,10.254,27.344,-11.719,17.09
35.645,10.742,30.762,-5.859,40.527
25.879,11.23,25.879,-3.418,41.016
12.695,9.277,20.996,-7.812,54.199
1.465,9.277,29.297,-20.996,65.43
14.16,10.254,36.621,-11.23,1.953
38.574,13.184,41.992,-0.977,-24.414
31.25,15.137,46.875,-3.906,-7.324
19.043,13.184,38.086,-3.906,-12.695
7.812,15.137,27.832,-9.277,18.555
3.418,15.625,31.25,-9.766,59.082
26.855,15.137,36.133,-4.395,32.227
25.879,16.602,36.133,-5.859,-4.883
19.531,16.113,26.367,-13.184,-10.742
7.812,14.648,20.508,-13.672,8.301
1.465,15.137,26.855,-11.23,28.32
33.691,16.113,23.438,-0.488,3.906
40.039,18.555,23.926,2.441,-17.09
30.273,17.09,24.902,-2.93,-7.812
17.578,9.277,21.484,-3.906,4.883
11.23,6.836,25.879,-4.883,-20.508
34.18,11.23,30.273,-0.977,-36.133
46.387,17.09,31.25,7.812,-5.371
42.48,17.578,26.367,9.766,3.418
21.973,14.16,21.484,1.465,13.672
17.09,20.02,19.531,-4.395,-8.789
35.156,22.461,22.949,-2.441,29.297
36.621,19.531,23.926,7.812,23.926
29.297,21.484,20.996,5.371,-35.645
23.926,21.484,19.531,-9.277,38.086
10.742,27.344,24.414,-11.719,38.086
28.32,32.715,34.18,-0.488,2.93
51.27,29.785,34.18,5.859,-7.812
30.762,28.32,29.297,6.348,-18.066
11.719,24.902,26.367,4.883,29.785
11.719,27.344,30.273,-6.348,15.137
31.738,27.344,40.039,-0.977,-28.809
52.734,23.438,38.086,16.113,25.391
39.551,25.879,37.109,16.113,48.34
20.996,25.879,35.645,4.395,-33.691
12.207,26.367,35.156,-4.883,-28.32
25.391,24.414,35.156,1.465,17.09
41.504,20.508,30.273,10.742,-54.688
32.715,23.926,22.949,12.695,9.766
22.461,21.973,21.484,5.859,30.273
0.488,16.113,27.344,-6.836,-46.875
7.812,19.531,36.133,-5.859,-21.484
39.062,20.508,44.922,2.441,-6.348
35.645,18.555,43.457,3.418,10.742
21.973,15.137,32.227,1.465,-14.648
5.371,15.137,24.902,-5.371,11.719
6.348,17.09,27.344,-12.207,76.172
35.156,16.113,30.762,-6.348,9.766
36.621,17.09,28.809,-2.441,17.09
20.996,18.066,21.484,0.488,31.738
7.812,16.113,17.578,0.977,20.996
-3.906,13.184,18.066,-1.465,47.363
7.812,10.254,19.043,-3.906,40.039
16.602,7.812,19.043,-10.254,13.184
3.906,4.395,18.066,-14.648,-1.465
-11.23,2.93,12.207,-15.137,6.836
-17.09,6.348,15.137,-22.949,54.688
3.418,8.301,20.02,-18.066,55.176
14.648,11.719,13.672,-6.348,-7.812
8.301,12.695,3.906,-9.277,1.953
-5.859,11.23,10.254,-11.23,28.32
-10.742,10.254,21.973,-12.695,-6.836
21.484,10.742,29.297,-18.555,4.395
24.902,10.254,40.527,-10.254,38.574
7.324,8.789,43.945,-13.184,39.062
2.441,8.301,33.691,-24.414,0.488
-10.254,7.324,36.133,-24.414,69.336
6.348,9.277,40.527,-12.695,82.52
22.461,11.719,42.969,2.441,33.691
18.066,11.719,42.48,-1.953,60.059
12.695,12.695,34.18,-13.184,48.34
-9.277,13.184,35.645,-21.973,59.082
4.883,10.742,40.527,-23.438,77.148
29.297,8.789,40.039,-13.184,68.359
13.184,5.371,24.902,-4.883,8.789
0.488,1.465,20.996,-2.441,-43.945
-2.441,2.441,31.25,-13.184,-12.207
11.23,4.883,35.156,-12.695,-30.762
39.062,9.766,34.18,-2.441,-25.391
32.715,12.695,27.344,-3.418,-30.762
15.137,13.672,19.043,-3.418,-35.645
2.441,16.602,20.02,-7.812,22.461
7.812,19.043,27.832,-7.812,-9.277
34.18,18.555,26.855,3.418,34.18
28.809,13.672,22.949,2.93,68.848
10.742,10.742,16.602,-4.883,3.418
-5.859,9.766,16.602,-11.719,-28.32
-2.93,8.301,20.996,-16.602,1.465
29.297,7.324,21.484,-11.719,49.316
28.32,9.277,18.066,-4.395,9.766
11.23,6.348,13.184,-5.859,16.113
0.488,1.465,11.23,-13.672,77.148
-2.441,2.441,8.301,-15.137,17.09
21.973,3.418,12.207,-6.348,-25.879
22.461,6.348,22.461,1.465,35.645
7.324,8.789,21.973,13.184,86.426
-6.348,5.859,17.09,6.836,86.914
-7.324,1.465,18.555,-9.277,72.266
19.531,0.977,19.043,-5.859,62.988
27.832,2.93,12.695,6.836,44.922
20.996,3.906,11.23,8.301,-46.875
13.184,7.324,15.625,-3.418,-85.938
1.465,14.16,20.996,-8.789,20.02
12.207,11.719,22.461,-0.488,26.855
22.461,11.23,20.02,17.578,12.207
12.207,12.207,12.695,22.949,56.641
-3.906,10.742,5.859,7.324,63.477
-12.207,11.23,11.719,-6.348,19.531
10.254,12.207,27.344,-8.789,2.93
30.273,15.625,32.715,-0.488,22.949
20.996,14.648,26.367,4.395,52.734
2.441,11.23,17.578,-2.93,61.523
-14.16,13.184,12.207,-16.602,41.992
1.465,16.602,15.625,-17.09,34.668
25.391,14.16,14.16,-3.906,-40.039
13.184,13.672,10.254,-6.348,-24.414
-0.488,13.184,9.766,-7.812,92.773
-8.789,7.812,5.371,-11.23,55.176
-6.836,9.277,1.953,-15.137,-24.902
17.09,14.648,3.906,0.488,52.734
19.531,17.09,3.418,2.93,128.418
9.277,16.113,1.465,-1.465,74.707
8.301,13.184,0,-8.789,82.031
9.766,13.184,-2.441,-10.254,34.668
26.367,13.184,-0.488,-0.488,-28.32
23.926,12.695,4.395,2.93,14.16
9.277,13.184,-3.418,0.977,-45.898
1.953,15.625,-3.418,-9.766,-44.922
3.906,16.602,4.883,-9.277,24.414
35.156,18.555,-3.418,1.953,7.812
39.062,20.02,-4.395,1.465,14.648
20.02,17.578,-2.441,1.953,32.227
6.348,20.02,-8.301,-0.977,-21.484
7.812,22.461,0,-6.348,48.828
32.227,21.484,7.324,0.977,79.59
34.668,23.438,2.441,4.883,11.23
13.672,24.414,-3.418,6.836,-1.465
-0.488,22.949,0.488,-4.395,-49.805
2.93,25.391,11.719,-15.625,31.738
32.227,27.344,13.672,-4.395,106.934
42.48,25.391,8.789,11.23,47.852
31.25,24.902,2.93,7.324,20.02
10.742,23.438,-0.977,6.348,-5.371
2.441,20.996,0.488,2.441,17.09
