TP9,AF7,AF8,TP10,Right AUX
41.992,38.574,137.695,33.691,6.348
38.574,41.504,-190.43,31.738,-27.832
30.273,39.062,-338.867,24.902,-33.203
34.668,35.645,-124.023,26.367,21.973
42.969,36.621,21.973,30.762,62.988
41.992,36.621,98.145,26.855,67.871
36.621,35.645,-64.941,24.902,-31.738
29.785,34.668,-180.176,26.367,-9.277
24.902,33.691,-197.754,21.484,50.781
28.809,36.621,-38.574,16.602,50.781
34.668,39.551,175.293,21.973,46.387
29.297,38.086,-126.465,24.902,9.277
26.367,38.574,-375,18.066,35.156
20.508,40.039,-250,18.066,15.625
22.461,36.621,-77.148,19.043,19.531
35.645,36.621,145.996,24.414,72.754
38.574,40.039,-49.316,29.785,20.996
30.273,36.621,-373.047,26.855,6.836
21.484,35.156,-418.945,22.949,45.41
26.367,37.598,-237.305,22.461,21.484
34.668,34.18,96.191,26.367,-0.977
33.691,28.809,-30.762,31.738,34.668
25.879,34.668,-424.805,31.738,91.797
22.949,38.086,-405.762,26.855,8.789
29.297,37.109,-198.73,27.832,-4.883
39.551,36.621,4.395,30.762,22.949
40.039,38.086,-95.215,35.156,12.695
23.438,40.527,-354.492,27.344,41.016
16.602,39.551,-466.309,15.137,45.41
24.414,37.598,-446.289,17.578,44.434
32.715,35.156,-140.625,19.043,21.973
32.715,34.668,-41.504,14.648,15.137
14.648,34.18,-459.961,7.324,19.531
8.301,37.598,-565.918,2.441,23.438
20.02,41.992,-350.098,9.766,-22.461
27.344,40.527,-33.691,14.648,12.695
32.227,40.039,-22.461,16.113,70.312
33.203,42.48,-343.262,20.508,64.453
14.648,35.156,-513.184,20.996,67.871
7.324,27.832,-463.379,23.438,39.062
31.738,27.344,-159.668,31.25,107.91
36.621,28.809,-141.113,27.832,85.449
17.09,30.273,-551.27,13.184,-16.113
4.883,32.227,-613.281,6.836,-4.883
14.648,34.18,-363.281,13.672,19.531
35.156,36.133,-176.758,24.414,44.434
39.551,37.109,-78.613,32.227,65.43
33.203,33.203,-364.258,32.715,29.297
23.926,32.227,-650.391,30.762,-15.137
19.531,34.668,-551.758,28.32,15.137
20.02,32.715,-308.594,26.367,20.02
23.438,33.691,-189.453,26.855,-41.016
22.461,33.691,-312.988,22.461,52.734
14.16,35.156,-620.605,14.648,118.164
15.625,37.109,-727.051,15.625,20.02
24.414,32.715,-412.109,18.066,-2.441
27.344,30.762,-92.773,15.625,37.109
20.508,33.203,-329.102,14.16,61.035
21.484,33.203,-656.25,10.254,7.324
19.531,31.738,-633.789,10.742,-17.09
20.508,29.785,-437.5,9.766,-3.906
31.25,28.809,-172.363,8.301,1.465
36.621,30.762,-417.969,11.719,-15.137
26.855,28.32,-713.379,10.254,-2.441
18.555,28.809,-548.828,7.324,63.477
32.227,29.785,-481.934,7.812,27.832
44.922,32.227,-233.398,9.277,-6.836
42.969,36.133,-236.328,15.137,17.09
29.785,38.086,-607.422,12.695,9.766
30.273,40.527,-545.41,10.254,-1.953
36.133,38.574,-319.824,11.719,-3.418
45.898,40.527,-86.426,15.137,24.902
47.363,41.504,-145.02,23.438,36.621
31.25,34.18,-448.73,22.461,20.508
27.344,36.621,-543.945,18.555,-4.883
34.18,40.039,-383.301,19.043,-25.879
45.41,38.086,-86.914,23.438,17.09
45.41,37.598,-124.023,25.879,3.418
34.18,34.668,-360.352,23.926,-12.695
22.461,33.203,-397.949,19.043,21.973
21.484,34.18,-214.355,14.648,62.012
23.438,30.273,-19.043,13.184,-4.883
14.16,22.949,26.855,10.742,-37.598
4.395,23.926,-189.941,14.648,35.156
-3.418,24.414,-369.141,12.207,18.066
-0.977,23.438,-281.738,6.348,-14.16
7.324,21.973,-8.789,9.277,-5.371
9.277,22.461,102.051,15.625,-19.531
5.371,26.855,-126.953,14.16,27.832
1.465,28.32,-402.832,13.184,29.297
3.906,26.367,-274.414,14.16,25.879
15.137,25.879,28.32,12.695,37.598
27.832,31.25,203.125,13.672,37.109
14.16,31.738,-99.609,15.625,50.293
-1.953,32.715,-413.574,17.09,69.336
7.324,33.203,-148.438,17.09,71.777
31.738,32.227,87.891,19.531,-14.16
45.41,35.156,236.328,26.855,-21.973
37.109,34.668,6.836,29.297,-31.738
21.484,34.18,-230.957,27.832,-4.883
18.066,30.762,-230.469,25.391,13.672
32.227,30.273,-93.262,21.484,-9.277
43.457,33.691,169.922,30.273,8.789
38.086,32.715,-16.602,37.109,-19.531
20.996,32.715,-334.961,30.762,-49.316
14.16,33.691,-171.387,23.926,19.043
27.832,32.715,34.18,27.832,21.484
39.062,33.203,295.898,33.203,23.926
36.621,33.691,114.746,25.879,29.297
28.32,39.062,-202.148,17.09,21.484
17.09,40.527,-210.449,16.113,47.363
26.367,40.527,-38.574,13.184,34.668
50.293,46.387,217.285,24.414,26.367
40.527,43.945,29.785,24.414,-3.906
9.766,40.039,-237.793,13.184,32.715
3.906,37.598,-137.695,10.742,57.129
8.789,33.203,14.648,8.789,28.809
14.16,30.273,247.559,14.648,28.32
4.395,26.367,220.215,20.02,78.125
-8.301,26.855,-145.02,19.531,75.195
-7.324,25.879,-277.344,13.672,7.812
0.488,23.926,-46.387,16.602,3.906
11.23,29.297,255.859,20.02,20.996
14.648,28.809,203.613,19.043,4.395
4.395,23.926,-95.215,19.043,10.254
-2.93,25.391,-269.531,20.02,-0.977
5.859,23.926,-126.465,20.996,16.113
19.531,26.367,242.188,25.879,49.805
20.996,29.297,324.707,29.297,48.34
12.695,27.832,-200.684,27.344,-3.418
0.977,26.855,-380.371,23.438,-48.828
7.812,32.227,21.484,23.926,28.32
19.043,33.203,209.961,21.973,47.363
26.367,30.762,270.508,20.996,44.434
17.09,30.762,-18.066,25.879,94.238
5.371,30.273,-287.598,20.02,81.055
1.465,26.367,-124.023,15.625,95.703
4.883,24.414,22.461,16.602,46.387
11.23,25.391,201.66,12.207,35.156
10.254,25.391,-74.219,10.254,0.977
0.488,23.926,-364.258,8.301,-56.152
-5.371,22.461,-22.461,9.277,43.945
6.836,22.949,186.523,19.043,56.641
20.996,25.391,260.742,22.949,27.832
20.996,25.879,34.18,22.949,37.598
15.625,32.227,-245.117,20.996,32.227
12.207,33.203,-234.863,12.695,-0.488
14.648,28.32,20.996,11.23,-7.812
16.602,27.832,261.719,5.859,23.926
3.418,27.344,5.371,0.488,28.809
-5.859,30.762,-331.055,-1.465,-17.09
-22.949,25.879,-225.586,-19.531,-17.09
-31.25,25.391,87.402,-30.762,2.441
-32.715,26.367,349.121,-38.574,5.859
-59.57,22.461,118.652,-63.477,7.324
-90.332,20.996,-232.91,-86.426,46.387
-107.422,17.578,-129.883,-96.68,41.016
-107.422,14.16,101.562,-103.516,12.695
-104.492,18.066,311.523,-118.164,37.598
-122.559,24.414,208.496,-138.184,52.734
-143.555,25.879,-68.848,-149.902,104.004
-156.738,22.949,-230.469,-160.156,46.387
-159.668,20.996,-46.387,-165.039,-19.043
-154.297,19.043,303.711,-164.551,-14.16
-161.621,16.602,299.805,-166.992,10.742
-162.109,19.043,-94.727,-166.992,32.227
-164.062,21.484,-133.301,-172.363,64.941
-161.621,20.996,156.738,-172.852,61.035
-137.695,20.508,309.082,-166.016,11.23
-130.859,25.879,313.965,-164.551,29.785
-142.09,35.156,9.277,-161.133,59.082
-143.066,35.645,-142.578,-154.785,58.105
-132.812,34.668,-57.129,-143.555,9.766
-110.84,39.551,173.828,-124.023,28.809
-99.121,39.551,240.723,-113.77,73.242
-107.422,34.18,-24.414,-109.863,24.414
-95.703,37.109,-119.141,-99.609,61.523
-81.055,39.062,-47.852,-96.191,66.406
-68.848,35.156,103.516,-87.402,-6.348
-43.945,40.039,291.504,-65.43,-5.371
-47.852,40.039,-97.656,-54.199,-11.719
-45.898,36.133,-331.055,-46.875,22.949
-21.973,39.062,-66.895,-28.809,17.578
-2.93,39.062,126.953,-17.578,-6.348
13.184,33.691,246.582,-6.836,0
21.484,35.645,-172.363,7.324,-34.18
15.625,40.039,-410.645,15.137,-4.883
20.508,37.598,-97.168,24.902,35.156
48.828,38.086,139.648,41.992,35.645
63.965,45.41,259.766,49.805,61.035
59.57,46.387,-29.785,56.152,16.602
50.781,40.039,-282.227,63.477,22.949
57.129,39.062,-278.809,68.359,30.762
78.125,40.039,-45.898,71.777,13.184
89.355,38.574,178.711,77.148,-22.461
91.797,38.574,-18.555,82.52,-6.836
82.52,43.457,-277.344,81.055,47.852
81.055,43.457,-331.543,83.496,23.438
97.168,40.039,-106.934,91.309,25.391
104.98,41.992,216.309,94.727,-3.906
105.469,43.457,104.492,101.074,1.953
97.656,39.062,-363.77,98.145,25.879
98.633,41.992,-266.113,91.309,23.926
107.422,41.992,49.805,100.098,51.27
114.258,37.598,184.082,106.934,12.695
110.84,43.945,101.562,104.98,1.953
104.004,44.922,-199.219,99.609,71.777
100.586,41.992,-321.289,101.562,43.945
106.934,43.457,-104.492,103.516,18.066
122.07,47.363,137.207,107.91,57.129
117.188,49.805,83.008,114.258,41.016
102.539,48.828,-297.363,106.445,15.625
107.422,51.758,-323.242,103.027,35.645
114.746,52.246,-6.348,100.098,-18.066
118.652,49.316,216.309,97.656,-5.859
115.723,44.434,207.52,98.145,61.035
100.098,45.898,-156.738,93.262,54.199
88.379,49.316,-326.172,89.355,28.809
92.773,47.363,-164.551,94.238,29.785
99.609,44.922,102.539,94.727,30.273
99.609,46.387,133.301,95.703,-0.488
99.609,48.828,-216.797,98.145,20.02
88.867,45.898,-431.641,89.355,11.23
85.449,43.457,-188.477,85.449,0.488
98.633,42.48,152.344,88.379,42.969
93.262,37.109,231.445,82.52,75.195
76.172,39.062,-240.234,78.125,27.832
70.801,43.457,-462.402,82.52,19.531
74.219,40.527,-137.207,80.566,94.238
79.102,38.574,44.922,74.707,65.43
79.59,38.086,128.906,74.707,44.434
73.242,37.109,-147.461,72.266,27.344
62.988,36.621,-450.684,70.312,-62.5
63.965,41.504,-403.32,66.406,-48.828
77.637,42.969,-69.824,63.965,4.883
84.961,40.039,207.52,65.43,37.109
76.66,40.039,-147.461,63.477,17.09
72.754,45.41,-395.508,63.477,53.223
72.266,44.434,-250.977,62.5,108.887
74.707,41.016,-141.113,60.547,4.883
80.078,45.41,46.387,61.035,-50.781
76.66,44.922,-127.93,65.43,-19.043
68.848,42.969,-433.594,62.012,25.879
63.965,42.969,-357.422,56.152,18.066
68.848,43.945,-118.652,58.105,20.508
82.031,47.363,12.695,62.012,30.762
80.078,48.828,-155.762,65.918,28.32
67.383,47.852,-363.77,57.617,34.18
60.547,45.898,-324.707,47.363,22.949
73.73,44.922,-162.109,54.688,-28.32
79.59,40.527,40.527,59.57,0.488
61.523,38.086,38.574,55.176,68.848
46.387,40.527,-473.633,46.387,20.02
46.387,38.574,-558.594,39.551,-26.855
52.734,40.039,-43.457,39.551,-27.344
62.012,42.969,180.664,37.598,1.953
58.594,38.086,77.637,41.992,11.719
46.875,40.039,-303.223,44.922,31.738
40.039,45.41,-430.664,41.504,65.43
39.551,42.48,-129.395,41.504,70.801
52.246,39.062,155.273,47.363,81.543
54.199,39.551,153.809,47.852,85.938
45.898,42.969,-333.008,40.039,80.566
41.504,42.48,-522.461,38.086,13.184
47.852,41.016,-171.875,40.527,-14.16
53.223,41.016,33.691,42.969,-30.762
48.34,42.48,165.527,43.457,-6.836
34.18,39.062,-117.188,39.551,20.996
23.926,38.574,-388.672,36.621,-33.691
29.297,40.527,-309.082,35.645,-21.484
39.551,36.621,21.973,39.062,33.203
38.086,35.156,274.414,43.945,48.828
23.926,38.086,-160.156,40.039,31.25
13.184,37.109,-496.582,33.691,13.184
14.16,32.715,-108.887,37.109,75.195
30.273,34.668,187.5,40.039,106.445
38.574,38.086,220.215,38.574,70.312
27.344,36.133,-88.379,33.691,41.992
19.531,32.715,-354.98,31.25,24.902
23.926,34.18,-262.207,32.715,21.973
35.156,35.156,0,40.039,-11.23
39.062,30.762,176.27,44.922,-19.531
35.645,27.344,-27.832,40.527,44.434
30.273,35.645,-364.258,41.504,57.617
36.621,37.109,-183.105,43.945,8.301
48.828,27.832,155.762,47.852,-15.137
44.434,25.391,237.793,49.805,-69.824
39.551,27.832,40.039,50.781,-56.641
33.203,35.156,-269.531,45.898,-17.09
18.066,37.109,-264.16,24.414,-57.129
24.414,38.574,8.789,21.484,-52.246
33.691,39.062,302.246,26.367,68.848
25.391,36.133,106.445,29.785,79.102
19.043,36.621,-326.172,31.738,-1.465
20.996,36.621,-345.215,28.32,23.438
33.691,36.621,-43.945,33.203,6.348
49.316,36.621,290.039,38.086,8.301
49.316,31.738,204.59,38.574,97.168
36.621,31.738,-267.578,38.574,23.926
30.273,35.645,-306.152,38.086,-10.254
47.363,36.621,-27.832,36.621,9.766
56.152,37.598,202.148,39.551,19.531
51.27,37.598,208.496,41.504,83.496
47.852,38.086,-322.266,41.016,33.691
32.227,39.062,-417.48,39.062,8.789
31.738,37.598,-39.551,35.156,51.27
49.805,37.109,179.688,34.668,26.855
55.176,37.598,311.035,42.48,43.457
36.621,36.133,-235.352,44.434,-12.207
29.785,38.574,-451.66,35.645,-53.223
40.039,38.574,76.66,31.738,34.18
49.805,40.527,280.273,32.227,58.105
48.34,40.039,251.465,33.691,45.41
36.133,35.645,-31.738,30.273,53.711
24.902,34.668,-241.699,27.344,64.453
41.016,33.203,-92.773,30.273,34.668
66.895,34.668,170.898,35.645,17.09
51.27,36.621,224.121,36.133,13.184
24.902,33.691,-48.34,35.156,36.133
24.414,34.18,-185.547,32.227,59.082
30.762,32.715,32.227,39.062,95.703
41.016,28.32,256.348,41.992,104.492
43.457,26.855,277.832,29.297,50.293
26.367,25.879,-61.035,31.738,38.574
28.32,31.738,-288.574,42.48,29.297
47.852,36.133,-6.348,35.645,0.977
45.41,33.691,308.594,22.461,23.926
41.992,32.715,432.617,16.113,71.289
40.527,34.668,158.203,25.879,45.898
28.809,33.691,-215.82,33.691,14.16
24.414,34.668,-88.867,21.973,41.016
34.18,32.227,291.016,24.414,55.176
36.133,29.785,478.516,27.832,49.805
24.414,32.227,247.07,24.902,31.25
19.531,29.785,-285.156,20.996,-57.617
22.461,28.32,-99.609,21.973,-7.812
26.855,30.273,377.441,25.879,85.938
36.133,35.645,388.184,29.297,21.484
31.738,36.621,254.883,37.109,1.953
10.742,35.645,-29.785,35.156,14.648
20.02,37.598,-78.613,31.25,25.391
36.133,38.086,83.984,28.809,20.996
41.992,38.086,320.801,31.25,20.02
39.062,32.715,325.684,35.156,48.34
26.855,32.227,-76.66,29.785,22.949
32.227,32.227,-173.828,29.785,8.789
52.246,30.273,86.426,39.062,24.414
61.523,37.109,284.668,34.18,4.395
59.57,37.598,234.375,24.902,-4.395
51.758,39.062,-111.816,22.461,12.207
44.922,41.504,-192.871,23.438,23.438
52.734,40.039,41.504,24.902,47.852
60.059,39.062,222.168,28.32,34.668
55.176,36.621,248.535,39.551,1.953
41.016,35.645,-99.121,30.762,4.395
34.18,33.691,-365.723,19.043,58.594
40.527,33.691,31.25,20.508,42.969
45.41,36.621,476.074,25.879,-1.953
40.527,34.668,443.848,26.855,27.832
40.039,33.691,56.641,27.832,24.414
29.785,34.668,-161.621,29.297,4.395
30.762,35.156,77.148,27.832,57.129
38.086,34.668,312.988,24.414,48.828
40.527,34.668,346.191,25.879,-28.809
32.227,33.203,36.133,29.297,-23.926
19.531,35.156,-241.699,25.879,-21.973
28.32,38.574,-56.641,28.809,-31.738
37.598,39.062,281.738,34.668,4.883
38.574,41.504,468.75,35.645,-4.883
35.156,43.457,150.391,37.598,-21.973
35.156,43.457,-293.457,34.668,-9.766
30.273,39.062,-41.016,29.297,-21.484
41.504,39.551,351.074,34.18,-12.695
55.664,43.457,392.09,35.645,-34.18
37.598,42.969,111.816,34.668,-45.898
27.832,44.434,-167.969,35.645,21.973
35.156,41.504,-99.121,34.18,28.32
51.758,39.551,53.711,34.18,-19.043
59.57,42.969,290.039,40.527,4.883
49.316,43.945,253.418,36.621,53.711
34.668,42.969,-333.984,24.414,-21.484
32.227,40.039,-251.465,20.996,-25.879
41.992,38.574,265.625,24.902,22.461
46.387,40.039,370.605,28.32,34.18
36.133,35.645,158.203,28.32,40.039
32.227,30.273,-231.934,29.297,11.719
28.32,30.762,-254.883,31.738,12.695
32.227,31.738,12.207,29.785,7.812
41.504,30.762,228.027,28.32,13.672
35.156,31.738,39.062,27.344,11.23
29.785,32.227,-245.605,28.809,44.922
31.25,36.133,-188.965,28.809,104.98
42.969,38.574,-36.133,33.203,12.207
44.434,33.691,181.152,33.203,14.16
41.504,29.785,151.855,27.344,46.387
34.668,31.25,-340.332,23.926,45.41
27.344,36.133,-425.781,24.414,112.305
41.016,36.133,-35.156,31.25,60.059
53.711,34.668,177.734,26.367,42.969
56.641,36.133,124.023,22.461,36.133
51.27,40.527,-234.863,28.809,23.438
32.715,39.062,-438.965,29.297,54.199
34.668,30.273,-249.512,30.762,24.902
50.781,30.273,90.82,36.621,31.25
48.828,34.668,177.246,37.109,18.066
34.18,33.691,-252.441,37.109,9.766
24.902,35.645,-558.105,31.25,37.598
33.203,34.668,-215.82,28.809,-29.297
42.48,30.273,159.18,35.645,-0.977
43.945,32.715,117.188,38.086,27.344
36.621,35.645,-275.391,38.574,-34.18
31.738,35.156,-430.664,33.691,-7.812
40.039,38.574,-238.77,29.785,17.09
49.316,43.945,-57.617,31.25,8.789
47.852,38.086,135.742,37.598,66.895
42.48,36.133,-79.59,35.156,70.312
35.156,39.551,-555.176,32.227,68.359
34.18,36.133,-333.984,30.273,56.152
35.645,36.621,85.449,25.391,31.738
32.227,38.574,121.094,26.367,17.578
23.926,34.668,-112.793,26.855,25.391
11.23,31.738,-447.754,24.414,-41.992
8.301,30.762,-321.289,24.414,-32.715
17.578,28.32,9.277,24.902,44.434
33.691,29.297,97.656,29.297,47.852
33.203,30.273,-127.93,28.809,4.883
13.672,31.25,-543.945,20.508,-33.203
17.09,32.715,-378.906,16.113,20.508
23.926,31.738,91.309,17.09,34.18
21.484,32.715,185.547,20.996,1.953
14.648,33.203,-4.395,19.043,-16.113
2.93,31.738,-340.82,19.043,-16.113
-3.418,28.32,-299.316,19.043,88.867
3.418,29.785,-34.18,14.648,134.766
12.207,31.25,89.355,18.555,41.992
0.977,33.691,24.414,14.648,28.32
0,36.133,-287.598,10.742,71.289
-4.395,34.18,-468.262,14.16,3.418
-0.488,29.785,-213.867,15.137,-59.57
19.043,30.762,100.098,16.113,-18.066
8.301,32.715,192.871,20.02,28.32
-6.348,33.691,-288.086,16.113,-31.25
-6.836,36.621,-469.727,6.348,-0.488
6.836,36.133,15.137,10.254,23.438
11.23,31.738,249.023,15.137,-24.902
2.441,34.18,189.941,16.602,-24.414
1.953,35.156,-154.785,20.508,32.715
6.836,31.738,-302.734,17.09,77.148
7.324,31.738,-41.016,17.578,107.422
11.719,33.691,94.238,24.902,57.617
13.672,34.668,155.273,20.02,21.484
8.301,36.133,-57.129,13.184,64.941
6.836,37.598,-295.898,17.578,70.312
7.324,32.715,-79.59,19.043,63.965
21.973,33.203,206.055,20.508,21.973
25.391,31.738,298.34,25.391,-4.883
21.973,31.25,-50.293,27.832,-9.277
16.602,33.203,-375,26.855,-9.766
17.578,36.621,-32.227,21.973,31.738
33.203,38.574,333.008,20.996,58.105
35.156,33.691,307.617,24.414,15.625
26.855,32.715,5.371,26.855,33.691
24.902,34.668,-341.309,21.973,74.707
28.809,36.133,-110.84,21.973,25.879
36.133,35.645,330.566,27.344,-3.418
44.922,37.109,399.902,26.367,27.832
39.551,40.527,141.113,24.414,24.414
29.785,39.062,-217.285,22.461,42.48
36.133,42.48,-132.324,24.902,49.805
48.34,40.527,253.418,36.621,29.785
34.668,29.297,387.207,29.785,18.066
18.555,28.32,171.875,20.02,-7.324
14.16,29.297,-125.977,24.414,12.695
2.441,25.391,-157.715,22.949,5.371
11.23,24.414,153.809,20.996,26.367
21.484,25.879,463.867,19.043,67.871
18.555,27.832,333.984,22.949,62.012
13.184,29.297,-75.195,24.902,52.246
13.672,29.785,-117.188,20.02,-0.488
21.973,33.691,224.121,25.391,-8.301
32.227,33.203,487.793,33.203,89.355
31.25,27.832,320.312,25.391,65.918
20.02,24.902,-95.215,20.996,21.973
15.137,25.879,-65.43,22.461,53.711
21.484,27.344,275.879,27.832,64.453
32.227,28.809,401.855,29.297,74.219
34.668,29.785,313.965,24.902,35.156
22.949,31.25,-25.879,20.02,-31.25
17.09,31.25,-245.605,20.508,-18.555
27.832,26.855,264.648,25.879,45.898
39.551,24.902,663.086,23.438,21.484
44.434,29.785,496.582,25.879,-21.484
36.133,31.738,141.602,24.414,29.785
20.996,31.738,-49.316,26.855,30.273
24.902,30.762,187.988,35.156,0.977
33.691,28.32,469.238,31.25,30.762
36.621,26.855,434.57,31.25,32.227
32.227,28.809,45.41,32.227,26.367
20.996,34.668,-188.965,33.203,28.809
21.484,36.621,200.684,28.32,38.086
33.691,35.156,555.176,31.25,45.41
33.203,33.691,520.02,35.645,54.688
20.02,33.203,146.973,25.391,27.832
18.066,33.691,-134.766,23.926,12.695
29.785,35.156,93.75,28.809,53.711
47.852,36.133,323.242,26.855,-6.836
51.27,37.109,423.34,27.344,-7.812
25.879,33.203,195.312,27.832,61.035
5.371,30.273,-124.023,23.438,71.289
18.066,32.715,-41.992,23.926,71.777
39.062,35.156,166.992,20.02,11.23
37.109,32.715,370.117,18.555,22.949
28.32,28.809,294.922,16.602,32.227
23.926,34.18,-248.535,12.207,-16.602
7.812,36.133,-189.453,10.742,-13.672
15.625,31.25,369.629,9.277,29.297
25.391,29.785,422.363,15.137,13.672
14.648,32.227,183.594,21.973,33.203
8.789,33.691,-189.941,17.578,24.902
10.742,30.762,-180.176,16.113,-4.883
22.461,26.855,140.625,16.602,25.391
41.992,29.785,200.684,21.484,14.16
34.668,33.691,102.051,26.367,-5.859
17.09,31.738,-267.578,22.461,-12.695
18.555,32.715,-323.73,19.043,-3.906
21.484,33.691,156.25,22.461,31.738
29.297,32.227,337.891,26.855,44.922
30.273,31.738,190.43,25.391,21.484
26.855,32.715,-177.246,23.438,9.277
30.762,34.18,-236.328,25.391,-19.043
39.062,32.715,106.445,29.297,33.691
26.367,22.461,331.055,19.531,69.824
19.531,20.996,212.402,19.043,2.441
21.973,28.32,-228.516,26.855,-20.508
22.949,28.32,-340.332,23.438,29.785
38.086,23.926,166.992,26.367,60.547
49.316,23.438,414.551,26.855,14.648
44.434,24.902,309.57,22.949,-0.977
38.086,25.879,-50.293,22.949,-9.277
36.133,26.855,-248.047,23.926,-41.992
42.969,29.297,18.555,17.09,-19.043
46.875,29.297,356.934,17.578,15.625
42.969,26.855,388.672,22.461,30.273
28.32,26.367,-15.625,20.996,24.902
18.555,25.879,-313.965,19.043,-76.172
23.926,23.926,-88.379,20.996,-64.453
27.832,26.367,253.906,25.391,-27.344
28.32,24.414,371.582,29.297,-40.039
25.879,23.438,78.125,25.391,-10.254
28.32,26.367,-397.461,23.438,-20.508
28.809,22.949,-137.695,22.949,10.742
41.504,26.855,348.145,30.762,45.898
41.504,28.32,295.898,31.25,23.438
31.738,21.973,6.348,24.414,45.41
22.461,23.438,-277.344,27.344,112.305
22.949,31.25,-197.266,25.391,61.523
39.551,31.738,91.797,24.414,10.742
38.574,23.926,133.789,26.855,77.148
25.879,28.32,-87.402,27.344,24.902
17.09,31.25,-439.453,24.902,-2.93
24.414,30.762,-375,23.926,7.324
29.785,31.738,136.23,28.809,-3.906
22.461,31.738,208.008,25.391,0.977
18.066,34.18,-26.855,21.484,33.203
13.184,38.086,-382.324,17.578,34.668
5.371,38.086,-402.832,11.23,-16.113
15.137,37.109,-46.387,13.672,29.297
22.949,38.574,113.77,18.066,70.801
19.531,41.016,-99.121,18.555,16.113
8.789,40.039,-463.379,11.719,43.457
4.883,34.18,-511.719,8.301,25.879
23.438,34.18,-114.746,11.23,-33.203
32.227,38.086,126.953,14.16,3.418
26.367,37.109,-22.461,15.137,27.832
27.832,34.18,-439.453,18.066,46.387
26.855,32.715,-566.406,20.996,0
29.297,33.691,-217.773,22.949,-63.477
31.25,31.25,33.203,28.32,-15.137
26.367,30.273,-36.133,35.645,27.344
20.02,31.738,-440.43,36.133,44.922
18.066,35.156,-574.219,26.367,91.309
23.926,35.645,-339.844,28.809,51.27
29.297,32.227,-139.16,33.203,-13.184
26.855,33.203,-78.613,26.367,-11.719
13.184,35.156,-375.977,19.531,31.738
6.348,33.203,-615.723,13.672,-1.465
12.207,31.738,-296.387,8.789,28.809
23.926,37.598,-37.598,11.23,51.27
25.879,39.062,-94.727,12.695,25.879
17.09,34.668,-375.488,14.16,34.18
6.348,33.691,-768.066,8.301,50.781
14.16,35.645,-471.68,7.812,71.289
32.715,38.574,45.898,13.184,52.246
30.762,36.621,-69.336,17.578,25.391
20.02,35.645,-379.883,22.949,12.695
9.766,36.621,-705.078,17.578,-22.461
16.113,35.645,-417.969,11.23,-0.488
27.832,32.715,14.16,15.137,10.742
25.879,32.227,16.113,20.508,27.344
17.578,30.762,-183.594,24.902,58.105
8.301,29.297,-500,26.855,55.664
12.207,27.832,-390.625,26.855,47.363
24.414,29.785,-58.105,27.832,80.566
25.879,31.738,2.93,30.273,62.988
15.625,28.32,-237.305,28.809,-3.418
9.766,28.809,-676.27,27.344,-0.488
18.066,28.809,-572.266,23.438,13.672
29.297,26.855,-13.672,26.367,7.324
27.344,26.855,72.266,22.949,-24.414
16.602,28.809,-148.926,18.066,-21.484
8.789,26.855,-483.887,16.602,26.367
3.906,24.414,-449.707,6.348,72.266
9.277,23.926,-167.969,9.277,32.715
21.484,24.902,48.34,19.531,38.574
15.625,27.344,-106.445,20.02,29.297
12.695,26.855,-513.672,15.625,-29.297
24.414,30.762,-466.797,12.695,31.25
21.973,30.273,-234.375,11.719,14.648
24.902,23.438,-15.625,14.648,50.293
19.043,23.926,23.438,17.09,105.469
9.277,28.32,-435.059,10.742,75.195
8.301,31.25,-675.781,3.906,60.547
18.555,28.32,-183.105,9.277,55.176
23.438,30.273,83.984,16.602,-24.902
20.02,33.203,-58.105,19.043,-53.223
16.602,32.715,-393.555,17.09,0.488
9.277,33.203,-612.305,15.625,-12.207
16.113,33.691,-269.531,10.742,-1.953
31.738,33.691,2.93,12.695,-8.301
31.738,33.691,-145.508,19.531,-18.555
17.09,36.133,-429.688,12.207,64.453
13.184,37.598,-577.148,11.23,29.785
20.02,34.18,-262.695,12.695,38.086
25.879,30.273,-8.301,12.695,71.777
23.438,29.785,-119.141,13.672,-3.418
9.766,30.762,-491.211,8.301,-31.25
16.113,32.227,-684.57,3.906,8.301
23.926,30.762,-384.277,7.324,33.203
21.973,26.367,-104.004,12.207,25.391
27.832,25.391,-128.418,9.766,15.137
21.484,28.32,-375.977,8.789,36.133
20.508,28.809,-841.309,12.695,-8.789
31.25,31.25,-759.766,11.23,-15.625
40.527,30.762,-79.59,13.184,26.855
46.387,32.227,31.25,19.531,42.969
29.297,29.297,-345.703,22.949,62.012
13.672,28.32,-698.73,17.578,21.973
21.973,29.785,-601.562,15.137,0.488
35.645,31.25,-279.785,17.09,-0.977
35.645,33.203,-177.246,20.508,18.066
24.902,31.25,-417.969,19.531,21.973
16.602,34.668,-738.281,11.719,11.719
12.207,36.133,-665.039,8.789,23.438
15.137,33.691,-429.199,4.883,6.836
20.508,31.25,-281.738,5.859,27.344
12.207,29.785,-341.309,10.254,84.473
6.836,29.297,-766.602,6.836,51.758
11.719,31.25,-863.281,6.348,-21.973
20.508,30.762,-328.125,12.695,36.133
31.738,30.273,-147.461,16.113,60.547
29.785,29.785,-401.367,18.066,56.152
16.602,25.391,-787.109,19.043,67.871
17.09,22.461,-916.016,15.137,-7.324
29.785,22.461,-567.871,17.578,-23.438
36.133,20.996,-359.375,23.438,-5.371
27.832,21.484,-574.707,25.391,-8.301
21.973,29.297,-877.93,23.438,21.484
25.391,35.645,-958.496,19.043,36.621
30.762,33.203,-579.59,20.02,44.922
33.691,29.785,-263.184,27.344,80.566
29.297,30.273,-483.887,22.461,85.938
18.555,31.25,-838.867,20.02,42.48
14.16,32.227,-955.078,20.996,29.297
30.762,33.203,-733.398,22.949,13.672
38.574,31.738,-471.68,23.438,21.973
35.156,29.785,-551.27,20.996,20.508
24.414,27.832,-841.797,20.02,-13.672
15.625,29.785,-1000,16.602,-37.598
22.461,30.273,-855.469,17.09,-39.062
32.227,32.227,-428.711,22.949,42.48
33.203,35.645,-427.734,24.414,47.852
19.043,32.227,-808.594,21.484,-5.371
11.23,34.668,-988.281,15.137,-4.395
27.832,36.621,-752.93,13.672,23.926
34.18,32.715,-479.492,17.578,38.574
28.809,36.133,-460.938,19.531,35.645
25.391,36.621,-684.57,19.531,27.344
20.508,33.203,-977.051,19.043,8.789
27.344,31.738,-782.227,22.461,10.254
35.645,30.762,-441.406,31.738,11.719
35.156,32.715,-361.816,34.668,33.203
25.879,33.691,-510.742,28.809,43.945
19.043,34.18,-872.07,20.508,-10.254
24.902,33.203,-763.672,16.602,-6.836
32.227,30.762,-341.309,22.461,7.324
37.109,31.25,-227.539,27.344,35.645
33.203,34.18,-460.449,21.484,37.598
24.902,34.668,-840.82,11.719,12.695
25.391,35.645,-821.289,10.742,-32.227
41.992,35.645,-345.215,19.531,-34.18
42.48,29.785,-118.652,21.973,-16.602
25.391,28.32,-327.148,17.578,15.137
18.066,34.18,-750.488,13.672,17.578
17.578,33.691,-756.348,13.184,-1.953
23.438,32.227,-187.5,17.09,9.277
32.715,35.156,53.711,22.949,31.25
21.973,34.668,-179.199,22.949,41.016
9.277,38.574,-614.258,18.555,-20.508
14.16,38.574,-631.348,15.625,-1.465
28.32,35.156,-199.219,18.555,55.664
38.574,36.133,1.465,23.438,65.43
30.762,37.109,-154.297,27.344,32.227
15.625,33.691,-516.113,23.926,-7.812
13.672,29.785,-635.254,15.625,22.461
22.461,32.227,-295.41,19.043,41.504
38.086,30.762,15.137,21.973,49.805
35.645,29.297,1.953,20.996,36.133
18.066,31.738,-280.273,19.043,41.016
24.414,35.645,-628.418,17.09,53.223
38.574,34.668,-259.277,16.602,68.359
42.969,32.227,199.219,18.555,44.434
41.992,30.762,69.824,20.508,23.438
25.391,30.762,-238.77,18.555,84.473
17.09,32.715,-475.098,16.113,57.617
29.297,35.156,-227.051,15.625,9.277
39.062,33.203,31.25,18.555,17.09
37.598,29.297,37.598,17.578,48.828
31.738,33.203,-150.391,19.043,28.32
21.973,36.621,-509.277,17.578,48.828
24.902,31.738,-325.684,20.996,32.227
34.668,29.297,222.656,26.367,-10.254
38.086,32.715,205.078,27.344,-3.906
32.715,33.691,-133.301,28.32,-8.301
15.137,33.691,-367.188,19.043,42.48
20.02,34.668,-242.188,17.09,11.23
35.645,32.227,140.625,21.484,40.527
32.715,30.273,190.43,24.414,68.359
27.832,31.738,-209.961,25.391,9.277
22.949,30.273,-474.609,17.578,37.109
19.043,33.691,-211.914,15.137,64.453
25.879,33.691,139.16,17.09,1.465
28.32,29.785,210.938,18.555,-1.465
26.367,33.691,-33.691,17.578,56.641
15.137,34.18,-446.777,13.184,21.484
13.672,26.855,-328.613,6.348,-7.812
24.902,25.879,139.648,8.301,10.742
24.902,29.297,216.797,18.066,2.441
13.672,25.391,21.973,18.066,1.953
1.465,26.367,-353.027,13.672,22.949
6.836,29.297,-517.578,13.672,-25.879
21.484,29.297,49.316,19.531,4.883
27.344,28.32,368.652,25.391,33.691
25.879,27.832,130.859,26.855,11.719
18.555,28.809,-265.137,26.855,27.344
13.672,29.785,-366.211,27.832,18.066
10.742,27.344,33.691,22.949,-18.555
12.695,26.367,232.91,23.926,-21.484
10.742,26.367,53.711,25.879,11.719
-1.953,31.738,-215.332,19.531,81.055
1.953,30.273,-385.254,22.461,43.945
16.602,23.438,-26.855,20.996,2.93
22.461,24.414,246.582,25.391,54.688
1.465,26.855,88.867,24.902,48.828
-11.719,27.832,-166.504,17.09,-6.348
-8.301,29.785,-484.863,17.578,5.371
4.395,30.762,-194.336,20.02,18.066
16.602,29.297,309.57,20.508,18.066
8.789,28.32,194.336,21.484,54.199
0.977,29.297,-208.496,20.508,36.133
2.93,28.809,-432.129,19.531,13.184
13.184,29.785,-139.648,23.438,59.082
15.137,29.785,108.887,29.785,31.25
10.254,28.32,39.551,31.738,-37.598
13.184,28.32,-174.316,27.832,41.016
9.277,32.715,-531.25,24.902,50.781
10.742,36.621,-341.797,25.879,1.953
23.438,35.645,253.906,26.855,35.645
28.809,32.715,238.281,33.203,38.574
20.02,29.785,-119.629,35.156,18.555
6.348,29.297,-382.324,26.855,41.016
13.184,32.227,-244.629,29.785,44.922
27.344,34.18,96.68,35.645,15.137
31.25,37.598,190.43,36.621,61.035
24.414,39.551,-102.051,34.668,18.066
17.09,41.016,-427.734,31.25,-38.086
19.531,39.062,-298.34,33.203,33.203
32.227,34.668,66.895,33.691,32.227
38.574,37.109,202.637,26.855,15.137
30.762,37.109,95.215,22.461,1.953
17.578,32.715,-255.859,20.02,4.883
14.648,28.809,-360.84,18.066,-9.277
25.391,29.297,231.934,23.438,24.414
26.855,31.738,451.172,24.902,41.992
16.113,32.227,147.461,24.902,-11.719
8.301,31.25,-182.129,26.367,6.348
15.625,33.691,-159.18,24.414,41.992
30.762,34.18,227.051,25.879,31.25
32.227,32.227,359.863,25.879,87.402
25.391,31.738,196.289,23.438,131.348
12.695,30.762,-87.402,17.578,59.57
17.578,31.25,-275.879,15.137,-18.555
35.645,30.762,189.453,19.531,-5.371
36.621,29.785,597.656,20.508,49.805
15.625,29.297,362.793,13.184,48.34
2.441,27.832,-10.254,15.625,29.297
5.859,29.297,-145.508,20.996,18.555
11.719,28.32,159.18,11.719,0.488
19.043,24.414,403.32,17.578,-4.395
22.949,24.414,287.109,27.832,18.555
21.484,30.273,-105.957,21.973,38.086
16.113,34.668,-222.656,17.578,20.02
21.973,30.273,151.367,14.648,-7.324
29.297,28.32,436.035,16.113,26.855
23.926,31.738,338.867,21.484,56.152
16.113,29.297,-48.828,20.996,-7.324
15.137,30.273,-367.188,19.043,5.859
21.484,34.18,-58.105,18.555,18.555
24.414,36.133,437.988,20.508,-5.371
24.414,40.039,410.645,23.438,68.359
20.996,40.527,29.785,24.902,24.414
15.625,38.574,-206.543,23.438,10.254
19.531,36.133,-36.621,19.531,81.543
22.949,36.133,214.844,25.879,10.254
22.461,37.598,317.383,30.762,29.297
14.16,35.645,134.766,22.949,17.09
10.742,33.203,-271.973,21.484,-37.598
15.625,33.203,-175.781,25.391,28.809
23.438,34.18,364.258,26.855,29.297
24.414,33.691,424.316,30.273,14.16
18.555,32.715,65.43,35.156,2.441
11.719,31.738,-227.051,31.738,0
18.066,32.227,-67.871,31.25,18.555
25.879,33.691,261.719,38.574,2.93
23.438,37.109,235.84,38.574,-14.648
24.414,40.527,92.285,30.273,21.973
19.043,38.574,-165.527,25.879,47.363
14.16,35.645,-333.496,29.297,-30.762
17.578,38.086,201.66,23.438,-26.367
16.602,38.086,472.656,18.066,36.621
15.137,38.574,166.504,21.973,29.785
15.137,39.062,-204.102,26.855,6.348
17.09,41.992,-198.73,24.414,48.828
21.973,46.387,173.34,23.438,51.758
33.691,48.34,254.883,32.715,20.508
34.668,49.316,37.598,36.133,-6.348
20.02,48.828,-208.008,38.574,-1.953
17.578,51.27,-384.766,38.086,-43.945
27.344,49.805,64.941,28.32,-62.988
24.902,41.504,519.043,28.32,20.996
16.113,41.992,312.012,33.203,75.195
8.789,41.992,-72.266,35.156,54.688
11.719,40.527,-255.371,32.715,10.254
22.949,45.41,80.566,32.715,1.465
23.926,42.48,395.996,29.785,1.953
9.766,38.086,295.41,24.902,45.41
0.488,39.062,-13.672,21.484,49.805
10.742,40.527,-185.059,13.672,3.906
25.391,42.48,72.754,12.207,44.922
25.879,40.527,376.465,16.113,90.82
25.391,38.574,316.406,16.602,52.246
24.414,41.504,144.043,15.137,35.645
19.043,41.504,-185.059,10.254,14.648
17.09,38.574,-19.043,7.324,22.949
27.832,40.039,592.773,12.207,82.52
24.414,39.062,523.926,6.836,71.777
15.137,41.992,141.602,7.324,18.555
7.812,42.48,-90.82,7.812,-12.695
11.23,40.039,131.836,2.93,0.977
30.762,41.992,498.047,11.719,23.926
33.691,43.945,380.859,20.996,-12.695
24.414,43.457,158.691,25.879,3.906
22.461,42.48,51.758,28.32,72.754
23.926,39.062,94.727,21.973,6.348
29.297,39.551,497.07,24.902,8.789
35.156,41.016,631.836,29.297,45.41
26.367,37.598,391.602,20.02,70.312
21.973,36.621,-0.488,16.602,51.27
22.949,35.645,-18.066,17.09,-22.949
26.367,34.668,604.004,18.555,88.379
30.762,34.18,690.918,20.508,92.285
30.762,34.18,384.277,19.531,56.641
21.973,36.133,40.527,16.602,60.547
21.484,34.668,-51.27,17.578,-7.324
41.992,36.133,524.414,22.949,13.184
47.363,40.039,787.109,24.902,50.781
28.809,35.156,474.121,24.414,26.855
22.949,34.668,158.203,23.926,27.832
36.621,37.109,91.797,23.926,11.719
52.246,34.18,507.324,27.832,31.25
57.129,36.133,710.938,31.738,47.852
48.34,38.086,479.004,36.133,42.48
34.18,36.133,193.359,32.715,79.102
34.18,31.738,86.426,26.855,11.23
40.039,30.273,362.793,30.273,-8.301
44.434,36.133,643.066,34.668,39.551
39.062,36.621,572.266,37.598,60.547
36.621,35.156,273.438,40.527,45.898
41.504,34.668,-8.301,41.504,29.297
39.551,34.668,268.555,39.062,27.344
45.898,33.203,759.277,42.48,44.922
39.062,36.621,604.98,43.457,62.5
25.879,35.156,184.57,37.598,49.316
20.02,33.691,63.477,32.715,62.012
28.809,35.645,371.582,34.668,30.762
40.527,34.668,621.582,43.457,46.387
31.25,32.715,437.5,49.805,65.43
20.02,34.18,106.445,46.875,38.086
23.438,35.645,-38.574,39.062,-4.883
27.344,38.086,276.855,37.598,-12.695
32.227,37.598,641.113,41.016,52.246
30.762,34.18,488.77,45.898,46.875
23.438,35.645,212.402,43.457,60.547
14.648,34.18,-87.402,38.574,39.551
19.531,28.32,48.828,38.086,-6.836
31.738,32.715,467.285,41.992,2.441
27.344,34.668,410.156,43.945,-5.859
22.461,34.18,94.727,43.457,-4.883
27.344,37.109,-169.434,41.016,-16.113
34.18,30.273,-157.715,35.645,13.672
36.621,25.879,323.73,39.062,27.344
34.668,26.367,561.035,41.016,8.301
24.902,24.902,227.539,32.227,36.621
18.555,26.367,-145.996,33.203,24.414
26.855,27.832,-95.215,37.109,-9.277
41.016,25.879,313.965,37.109,41.504
40.527,24.414,327.148,37.109,54.199
23.438,25.879,35.156,37.109,5.371
17.578,27.344,-190.43,36.621,62.5
21.973,24.414,-152.832,37.109,90.332
36.133,20.996,130.859,40.039,80.566
43.945,23.438,194.824,46.875,76.172
33.203,24.902,38.086,50.293,42.48
28.809,24.902,-176.758,45.898,2.93
34.18,24.414,-219.238,41.016,-9.766
47.852,21.484,120.605,45.41,-8.301
60.059,21.973,306.152,52.734,21.484
47.363,22.461,88.867,47.852,62.012
36.133,21.484,-201.66,44.922,72.754
39.062,22.949,-429.688,45.41,43.457
44.434,23.926,-111.328,49.316,3.906
52.246,25.391,305.176,57.129,13.184
47.363,24.414,-7.812,57.129,5.859
39.062,18.555,-315.43,56.641,-20.996
45.898,17.578,-404.785,50.781,1.465
48.828,17.578,-156.25,42.48,13.184
41.992,17.578,189.453,47.852,-28.809
35.156,21.973,84.473,49.316,-17.09
28.32,22.461,-223.633,41.016,-24.902
35.645,22.461,-387.207,40.527,-18.555
43.457,23.438,-145.508,42.48,-3.418
50.781,22.949,88.867,45.898,-49.316
48.828,20.02,40.039,48.828,12.695
43.945,21.484,-261.23,49.805,54.688
48.34,23.926,-530.762,45.898,11.719
57.617,23.926,-259.277,46.387,24.902
59.082,23.438,115.723,53.711,8.301
51.27,22.949,33.691,57.129,-7.812
44.922,21.973,-217.773,57.617,8.789
39.062,18.066,-466.309,47.363,40.039
48.34,19.043,-458.496,45.41,28.809
64.453,21.973,49.316,54.199,13.184
64.941,18.066,191.895,53.711,23.926
50.781,16.602,-154.297,51.27,15.137
45.898,19.531,-458.496,46.387,-12.207
52.734,16.602,-301.27,47.852,23.926
56.152,16.113,23.438,56.641,55.176
60.547,20.996,0.977,59.57,40.039
52.246,21.484,-153.809,51.758,24.414
41.016,21.484,-380.371,40.527,25.879
48.828,20.02,-482.422,35.645,6.348
60.547,17.09,2.441,40.527,-4.395
66.406,18.066,249.512,48.828,13.184
58.594,20.996,-99.609,43.945,-7.324
46.875,21.484,-378.906,35.645,24.902
42.969,22.461,-393.066,40.039,39.062
50.781,18.555,-16.602,41.016,15.137
48.34,14.16,143.066,37.598,16.113
33.203,18.066,-194.824,41.504,45.898
37.109,20.02,-440.918,44.434,38.574
39.551,16.113,-518.066,41.016,-12.695
35.156,13.672,-180.664,43.945,-44.922
43.457,12.695,226.562,52.246,-20.996
38.086,9.766,-9.766,60.059,38.574
29.785,8.789,-389.16,51.758,19.043
29.785,10.742,-464.355,44.922,-13.672
38.086,11.719,-160.156,46.387,-17.578
47.852,8.789,51.27,44.922,4.395
38.574,9.277,-162.109,46.875,-4.395
29.785,15.625,-486.816,41.504,-32.715
37.109,18.066,-658.691,38.086,-6.836
49.805,15.625,-307.129,41.016,46.875
58.105,14.648,95.703,36.621,4.395
49.316,15.625,-59.082,33.691,41.992
37.109,15.137,-381.836,34.668,95.215
44.922,16.113,-605.469,30.762,46.387
59.082,14.16,-363.77,30.762,0
63.965,10.742,-28.32,34.668,-9.277
52.246,7.324,-132.812,38.086,14.648
34.668,7.324,-413.574,36.621,40.527
33.203,12.207,-612.793,28.32,17.578
45.41,7.812,-390.137,34.668,-0.977
49.805,5.859,-80.566,47.852,18.555
52.246,7.324,-228.027,50.781,-19.531
47.852,5.859,-383.301,49.805,-9.766
35.156,6.836,-482.91,48.34,46.875
45.41,8.789,-486.328,52.246,23.438
59.57,10.254,-11.23,54.688,11.719
56.641,9.277,72.266,50.781,16.602
43.945,5.371,-276.367,47.363,4.395
33.691,3.906,-509.277,43.457,21.973
42.48,5.859,-394.531,47.852,28.32
53.223,5.371,-32.227,50.293,-7.324
58.105,5.371,15.625,50.781,9.766
52.734,8.789,-314.453,50.293,14.648
38.574,9.277,-553.223,49.316,1.465
45.41,8.301,-316.895,46.387,36.133
59.082,11.23,108.887,49.316,45.898
54.199,9.277,115.723,51.27,39.062
37.109,5.371,-131.836,46.387,46.875
32.227,9.766,-306.641,42.969,64.941
32.715,8.301,-427.734,36.621,32.227
41.992,2.441,-12.695,35.156,30.762
58.105,3.418,354.492,40.527,110.84
48.34,4.883,0,41.016,45.898
39.062,8.789,-306.641,37.598,-24.414
47.363,8.301,-294.434,33.203,20.508
53.223,4.395,64.941,35.645,53.223
51.758,7.324,314.453,41.504,38.574
43.945,8.301,61.523,43.945,-10.742
47.852,4.883,-163.574,42.969,4.395
45.898,5.859,-307.129,41.992,9.766
41.504,8.301,-59.57,44.922,16.602
57.617,5.859,380.371,51.758,55.176
62.012,5.859,215.332,50.781,8.301
47.363,7.324,-96.68,46.875,-1.465
40.039,7.812,-181.152,48.34,14.648
50.781,8.301,66.406,41.504,-24.902
57.617,4.395,293.457,38.086,-19.531
52.734,3.906,152.832,47.363,10.742
44.434,7.324,30.762,45.898,40.527
45.41,9.766,-147.461,33.203,62.5
59.082,7.812,-77.148,30.762,12.207
71.777,5.859,423.828,37.598,-22.949
71.777,5.371,419.922,40.039,41.992
53.711,4.883,62.5,36.133,66.406
44.434,7.812,-154.297,34.668,25.879
59.57,12.695,14.648,31.25,-6.836
65.43,10.742,398.438,29.785,-2.93
57.617,3.906,354.98,31.25,-4.395
54.199,5.859,-12.695,33.203,-18.066
50.781,8.789,-165.527,23.926,8.301
44.922,10.742,-14.648,19.531,25.391
54.199,12.695,441.895,31.25,20.508
57.617,10.254,569.824,31.738,72.754
39.551,6.836,200.684,22.949,90.332
33.203,6.836,-91.797,21.484,45.41
34.18,7.812,27.344,32.715,14.16
32.715,6.348,385.254,37.109,-7.324
40.039,4.395,418.945,30.762,32.715
39.062,2.441,124.512,32.227,46.875
29.297,3.418,-184.57,33.203,-26.367
41.016,6.836,-65.43,33.203,19.043
54.199,8.789,295.41,35.156,40.527
52.246,5.371,426.27,37.598,30.273
42.48,3.906,177.734,40.039,40.527
35.156,3.418,-134.766,36.133,-1.465
41.016,2.441,-71.289,33.203,23.926
44.434,1.953,226.562,34.18,-0.977
43.945,2.441,396.973,31.738,10.254
33.691,3.906,177.246,35.156,55.176
21.484,5.859,-103.027,30.273,50.293
23.438,6.348,-83.496,26.367,73.242
37.598,2.93,203.613,27.344,24.902
41.504,1.465,361.328,25.391,8.301
24.902,5.371,186.523,29.297,84.961
20.508,6.836,-42.48,33.203,29.785
26.367,5.371,-89.844,34.18,6.836
30.762,4.883,146.484,29.297,66.406
35.156,5.859,580.078,30.762,42.48
27.344,3.418,517.578,32.715,-8.301
20.508,2.93,192.383,31.25,18.555
26.855,3.906,132.812,37.109,61.523
32.227,3.418,364.746,39.551,21.484
38.574,3.418,617.188,40.039,1.953
43.457,5.371,467.285,48.828,32.227
36.133,6.836,141.602,46.387,41.504
38.086,8.789,35.156,41.992,25.879
51.758,7.812,399.414,47.363,47.363
54.199,6.348,755.371,45.41,59.57
42.969,5.859,493.164,41.504,21.973
32.715,5.371,214.844,40.527,45.898
38.086,5.371,132.812,37.598,69.336
43.457,4.883,221.68,28.32,48.34
49.805,2.93,660.645,24.414,58.105
42.969,6.836,630.859,29.785,62.988
35.645,10.254,224.609,27.344,4.883
38.086,10.742,62.988,22.949,7.324
43.457,10.742,189.453,26.367,7.324
45.898,5.371,493.164,27.344,23.926
44.434,4.395,529.297,36.621,56.152
37.109,6.348,294.922,32.715,45.41
35.156,7.812,89.355,29.297,30.762
41.992,8.789,4.883,37.109,-13.184
46.387,8.789,394.043,37.109,0
41.992,8.301,562.5,35.645,-0.488
31.25,6.836,250.977,28.809,-2.93
28.32,7.812,37.598,26.855,5.371
32.715,4.883,99.121,25.879,17.09
35.645,8.789,416.016,29.297,33.203
37.109,11.23,388.184,34.668,26.855
37.109,10.254,73.242,36.133,24.414
29.297,8.789,-27.832,30.273,33.691
25.879,8.301,64.453,24.902,85.938
42.48,6.836,323.73,29.297,74.707
55.664,8.301,418.945,31.25,19.043
45.898,14.16,144.531,28.809,21.484
34.668,9.766,-105.957,24.414,22.949
41.504,11.23,-106.934,24.414,35.645
51.758,17.578,123.535,27.344,6.348
45.898,13.672,340.332,25.879,-1.465
41.016,13.184,150.879,26.855,-40.527
39.551,13.184,-165.039,28.32,-74.707
38.574,13.184,-199.707,24.902,-15.625
47.363,18.555,135.742,31.25,-16.113
59.082,19.043,494.141,40.039,14.16
48.828,14.648,220.703,42.48,7.324
42.969,16.602,-63.477,41.992,14.648
45.898,15.137,-176.758,40.039,36.621
52.734,11.23,-103.516,41.992,46.875
56.152,10.742,351.562,43.457,52.734
45.898,11.23,349.121,38.574,24.414
33.691,15.137,-1.465,34.18,51.27
27.344,15.137,-143.066,33.691,65.43
35.156,13.184,40.527,35.156,80.078
51.758,11.719,273.926,35.156,18.066
44.922,13.672,233.887,33.203,-3.418
29.785,11.719,93.75,35.156,80.566
29.785,10.254,-90.82,31.25,85.449
35.156,15.625,-84.473,29.785,49.805
45.41,15.625,353.516,32.715,37.598
39.551,15.137,422.363,27.344,23.926
30.273,18.066,62.988,25.391,10.254
27.832,18.066,-66.895,21.484,70.312
29.785,19.531,73.73,12.695,59.082
47.363,20.996,353.027,21.973,-12.695
47.852,21.484,222.168,29.785,-55.664
24.414,21.484,15.625,29.297,1.953
33.203,20.508,-55.176,29.785,71.777
43.457,19.043,32.227,25.391,20.996
38.086,17.578,437.988,31.25,19.531
45.41,16.602,452.637,35.645,38.574
33.203,12.207,90.82,28.809,19.043
27.832,11.719,-32.227,28.32,65.918
37.109,15.137,-59.57,28.809,79.102
37.109,13.672,233.398,23.926,48.34
41.016,16.113,499.023,18.555,43.457
34.668,19.043,195.312,17.578,67.383
30.762,19.043,-121.582,17.09,10.742
36.621,20.996,-128.418,8.789,-2.93
48.34,21.484,294.434,8.789,46.875
56.641,21.484,601.562,14.648,26.855
47.852,20.508,275.391,19.531,-15.625
38.574,22.949,-51.27,18.066,-34.668
38.086,22.461,56.641,14.16,-26.367
48.34,22.461,429.199,17.09,0.488
55.176,23.438,556.641,20.996,7.324
47.852,21.973,276.367,21.973,-16.113
35.645,23.438,78.125,18.066,36.133
33.691,19.043,50.781,12.695,42.48
41.016,18.555,265.137,18.066,14.16
48.34,21.484,503.906,20.508,20.02
40.039,16.113,362.305,20.02,6.348
29.297,16.602,183.105,18.555,-2.93
29.785,16.113,119.141,16.602,38.086
35.156,11.23,324.219,20.508,6.348
37.598,16.113,658.203,24.902,25.879
34.18,16.113,418.457,19.043,58.594
26.855,15.625,108.398,15.625,0
34.18,17.578,138.184,19.043,29.297
40.527,18.066,338.867,16.113,17.09
35.645,16.113,648.438,15.137,3.906
35.156,18.066,427.246,19.043,-3.418
30.273,20.996,106.445,15.625,-31.738
33.203,19.531,148.926,17.09,-13.184
47.852,17.09,225.586,20.996,-13.672
54.199,16.113,538.574,18.066,3.418
58.105,17.578,679.688,18.555,-49.805
51.27,21.484,384.766,18.066,-24.414
36.621,24.414,214.844,17.09,40.527
42.969,23.926,349.121,21.484,44.434
49.316,19.531,608.398,27.344,31.25
44.922,17.578,503.418,30.273,-8.301
38.086,18.555,247.559,27.344,18.066
40.039,18.555,75.195,26.855,0.488
49.805,20.996,97.168,24.902,-22.949
54.688,23.926,473.145,24.902,-28.32
46.875,23.926,676.758,25.391,-36.621
40.039,21.973,341.309,27.832,-18.555
35.156,20.508,121.094,28.809,-11.719
39.551,20.996,261.23,24.902,45.898
50.293,26.367,556.152,26.855,95.703
52.734,27.832,534.18,29.297,52.246
40.527,26.367,230.469,29.297,44.922
28.809,21.484,49.316,24.902,59.082
42.48,19.531,103.516,24.414,46.387
57.129,25.391,313.477,26.855,4.883
49.316,26.367,423.34,23.438,25.391
37.598,26.367,210.449,26.367,22.461
31.738,28.809,79.102,24.414,-9.277
38.086,29.785,16.113,14.648,6.836
41.016,28.32,171.387,13.672,-20.02
40.527,28.32,545.41,17.09,-8.789
36.621,27.832,333.984,13.672,41.016
27.344,27.832,-27.832,10.742,24.902
24.902,26.855,-81.543,13.184,36.621
33.203,21.973,153.32,20.508,-2.441
40.527,22.461,392.578,28.32,19.043
33.203,26.367,91.309,24.414,85.938
24.414,24.902,-176.27,24.902,65.918
25.391,25.879,-155.273,27.832,49.805
35.645,30.273,-102.051,24.414,-40.039
46.875,29.785,302.246,24.414,-27.832
37.109,24.902,281.738,24.414,46.875
25.879,24.902,-103.027,19.531,62.988
23.926,23.926,-255.371,12.695,20.996
31.738,22.461,-12.695,8.789,31.25
34.668,22.461,291.992,18.066,91.797
22.461,21.484,78.125,24.414,60.547
16.113,21.484,-260.742,19.043,23.438
13.184,21.973,-431.152,13.184,-27.344
19.043,21.973,-140.137,12.695,-12.695
26.367,19.043,259.766,18.555,-9.766
16.113,20.508,173.34,17.578,-10.742
4.883,22.461,-116.211,12.695,49.316
6.348,22.949,-325.684,11.23,-2.441
20.508,20.996,-91.309,15.137,-26.367
30.273,18.066,333.008,18.555,6.348
15.137,19.043,288.574,18.066,22.461
0,19.043,-49.805,15.137,18.066
-0.488,22.949,-160.156,12.207,18.066
1.953,24.414,-14.16,10.254,9.766
7.812,21.484,262.695,19.531,12.207
3.906,20.508,313.477,23.926,1.953
1.465,18.066,83.008,16.602,-1.953
2.441,19.043,75.684,15.625,22.461
0.977,20.996,113.77,16.113,67.383
14.648,20.996,232.91,12.695,41.504
15.137,20.996,585.938,16.113,41.504
4.883,26.855,361.816,20.02,43.945
3.418,29.297,30.273,18.066,-15.625
12.695,29.297,214.355,19.531,34.668
29.785,29.785,560.059,20.508,103.027
25.391,28.32,592.285,17.09,55.664
2.93,28.809,219.238,20.996,61.035
-5.371,23.438,70.312,22.949,85.938
3.418,25.879,115.234,19.043,-0.488
16.602,27.832,343.75,18.066,12.207
18.066,24.902,694.336,19.043,62.012
21.973,32.227,472.656,27.832,52.246
19.043,35.645,184.57,26.855,60.547
10.742,31.738,144.043,16.113,29.785
23.438,27.832,391.113,18.066,-0.488
31.738,28.32,620.605,17.578,0
21.484,29.297,376.465,14.16,37.109
15.625,30.762,132.812,18.066,46.875
24.902,30.273,83.496,17.578,20.996
27.832,29.785,392.09,15.137,47.363
24.902,30.273,716.797,16.113,85.449
21.973,30.762,467.773,22.949,78.613
18.066,33.203,165.527,26.855,68.359
19.043,30.273,110.352,20.996,20.02
25.879,25.879,233.398,17.09,-4.395
27.832,23.926,580.078,16.113,15.625
26.855,24.414,575.684,18.066,33.203
11.719,21.484,212.402,16.113,29.785
7.812,22.461,95.703,16.602,-41.504
22.949,25.391,351.562,15.625,-11.719
33.203,28.809,591.797,18.555,43.457
38.574,30.762,446.289,24.902,15.137
29.297,29.297,211.914,20.02,28.32
28.32,29.297,208.496,16.602,24.902
32.227,26.367,364.258,17.578,-12.695
36.621,26.855,658.691,23.438,43.945
35.156,32.715,599.121,27.832,85.938
19.043,33.203,265.625,22.461,111.328
20.996,30.273,174.316,23.926,70.801
32.715,28.32,169.922,22.461,16.113
34.18,28.809,450.195,21.484,32.227
31.738,28.809,634.277,22.949,-9.766
20.996,25.879,214.355,19.531,-38.574
16.602,25.879,110.84,18.555,-6.836
21.484,25.879,269.531,18.555,39.551
32.715,25.879,465.332,13.672,37.598
34.18,25.879,698.73,20.02,30.273
17.09,21.973,420.41,20.02,40.527
14.648,20.996,131.348,14.648,-2.441
31.25,21.973,194.336,19.531,-23.926
47.852,20.996,532.227,27.344,54.199
39.062,20.996,645.996,21.484,118.164
17.09,24.414,252.93,16.113,31.738
15.137,26.367,38.574,17.578,-25.879
23.438,29.297,66.895,20.996,11.719
28.809,26.855,269.531,26.367,-6.348
30.273,26.367,647.461,25.879,25.391
20.996,31.25,416.992,18.066,7.324
9.277,32.227,73.242,10.742,-27.832
15.625,30.762,103.027,10.742,27.344
19.531,28.809,328.613,8.789,0
20.508,29.297,538.086,9.277,-9.766
15.137,29.785,298.828,6.348,21.484
10.254,28.809,0,1.953,-1.953
14.648,25.391,27.832,1.465,23.926
23.438,26.367,278.32,5.371,44.434
25.879,29.297,402.832,11.23,44.922
21.484,29.785,174.316,12.207,27.344
21.484,29.785,0.977,13.184,23.438
22.949,26.367,39.551,8.789,31.25
37.109,28.809,65.43,11.23,12.695
41.992,34.18,319.336,19.531,29.297
27.832,33.203,380.859,20.02,51.27
17.09,32.227,4.395,21.973,59.57
17.578,33.203,-193.359,27.344,0
28.809,33.203,94.727,31.25,2.441
41.016,32.227,432.617,32.715,30.762
40.527,29.785,270.02,32.715,55.664
30.273,30.273,-146.484,28.809,77.148
21.973,34.668,-211.914,22.461,60.547
32.227,34.18,36.621,20.996,34.18
41.016,31.738,287.598,20.02,12.207
26.855,32.227,267.578,17.578,58.594
14.16,30.762,-102.539,12.695,74.219
14.16,30.273,-199.707,6.836,62.5
22.461,28.809,-187.988,4.883,12.695
21.973,26.367,57.129,9.766,3.906
15.625,28.809,305.176,3.418,39.062
9.277,33.203,-118.164,-1.465,24.902
4.395,34.18,-292.48,-0.977,8.301
20.996,33.203,-153.809,1.465,30.273
32.715,34.18,60.547,8.301,40.039
22.461,35.645,293.457,8.301,14.648
17.578,37.598,40.039,10.254,47.852
20.02,36.133,-221.68,17.09,17.578
32.227,34.18,-135.742,19.531,19.043
46.875,36.133,160.645,24.414,62.988
51.758,37.109,245.117,29.297,47.363
39.551,35.645,-54.199,22.949,45.41
29.785,34.18,-232.422,15.137,53.711
32.715,35.156,-165.039,19.043,41.016
41.016,36.133,75.684,21.484,-14.16
41.016,34.668,199.707,23.438,-8.301
28.32,30.762,-31.25,21.973,40.527
25.879,31.738,-179.688,13.184,-30.273
31.738,35.645,-49.316,14.648,-36.133
33.203,34.18,60.547,12.207,22.949
31.25,35.156,270.996,8.789,7.324
25.879,37.109,192.871,11.23,-32.715
21.484,34.668,-88.867,13.184,-16.113
23.438,32.715,-89.355,16.113,-41.016
35.156,33.691,201.66,17.578,-6.836
35.645,31.25,435.059,22.461,52.734
29.785,28.32,184.082,20.996,12.695
24.414,32.227,-145.996,16.602,10.254
19.043,36.621,-93.262,13.184,22.949
35.645,35.156,114.746,12.695,23.438
44.434,33.203,335.449,18.066,44.922
36.621,34.18,371.582,14.16,54.199
31.25,32.227,102.539,16.113,41.016
29.297,31.25,8.301,19.043,4.883
38.086,33.691,198.242,17.09,-38.574
39.062,28.809,494.141,21.484,23.926
31.25,26.367,373.047,22.461,45.898
28.32,31.25,-7.324,20.508,-17.09
30.762,35.156,-23.438,17.578,0.488
43.945,34.668,91.797,18.066,52.246
47.852,33.203,276.855,18.555,5.371
33.203,37.109,419.434,17.578,-9.766
26.855,33.691,103.516,14.16,-11.23
30.273,30.273,-5.371,14.648,-10.254
36.133,33.691,100.098,14.648,33.691
38.574,33.203,250,17.578,-25.391
35.156,35.645,412.598,19.531,-21.484
25.391,37.109,124.023,14.648,27.344
17.578,35.645,-77.637,15.137,11.23
24.414,39.062,55.176,15.625,18.555
34.18,37.109,313.965,14.16,17.09
29.297,32.715,308.105,11.23,71.289
16.113,37.598,-10.254,7.812,68.848
10.742,41.504,-66.895,9.766,59.57
17.578,38.574,-17.578,12.695,53.223
25.879,33.203,188.965,14.648,18.555
25.879,30.273,303.711,17.09,-45.41
10.254,31.738,-11.719,14.648,-50.293
3.418,33.203,-163.574,13.672,-5.371
17.09,33.203,-103.027,15.137,-32.715
26.367,31.25,167.969,19.531,8.301
21.973,32.715,384.766,20.508,66.406
7.812,36.621,80.078,18.555,61.523
1.465,33.203,-252.441,19.043,70.801
10.254,30.762,-163.086,16.602,45.41
15.625,33.203,17.578,12.695,20.02
14.648,34.668,194.824,11.719,19.043
5.859,35.645,252.93,13.184,25.391
-1.953,35.156,-32.227,13.672,40.039
-7.812,29.297,-99.609,9.277,-5.859
-0.977,28.32,166.504,10.742,15.137
6.348,31.25,312.5,15.137,7.324
-2.441,31.738,93.262,16.602,-33.203
-7.812,30.762,-152.344,12.695,38.086
-9.766,24.902,-131.836,10.254,54.688
2.93,26.367,-2.441,15.137,42.969
12.695,29.297,215.332,20.02,-6.836
7.324,27.832,260.742,23.438,-44.434
3.418,26.367,-64.941,20.02,-29.297
5.859,26.367,-65.43,15.137,17.09
12.695,25.391,140.625,19.043,12.207
10.742,27.832,373.047,23.926,23.438
1.465,27.832,293.457,18.555,65.43
-2.93,23.926,-80.078,7.324,23.926
-4.395,25.879,-119.141,7.324,12.207
4.883,26.367,122.07,11.23,40.527
10.742,26.367,394.043,13.672,104.004
8.301,30.762,235.352,12.695,102.539
4.395,31.25,-153.32,12.695,53.223
3.906,28.809,-87.402,12.695,41.016
16.113,30.762,80.566,9.766,9.766
25.879,31.25,201.172,10.254,-1.953
22.461,32.227,388.672,13.672,50.781
6.836,32.227,71.289,12.695,23.926
5.371,28.32,-144.531,11.23,-27.832
21.973,27.832,20.02,15.625,20.508
28.32,28.809,235.84,22.949,17.09
28.32,34.18,249.512,20.996,-43.945
22.949,41.016,-22.461,15.625,12.207
19.043,39.062,-222.656,15.137,61.035
28.809,35.645,-89.844,16.602,60.059
34.18,33.691,140.625,18.066,94.238
24.902,30.273,305.176,20.508,104.004
20.508,28.809,36.621,20.508,41.992
22.461,28.809,-175.293,15.137,27.832
30.762,31.738,-4.395,13.184,83.496
39.062,34.668,194.824,21.484,81.543
33.203,34.18,288.574,23.438,70.312
22.461,33.203,-2.93,20.996,47.852
14.648,33.203,-229.004,18.555,31.738
18.555,36.133,-104.492,17.578,36.133
36.621,36.621,104.004,23.926,4.883
37.598,33.691,182.129,31.25,-42.969
28.809,33.691,101.562,32.715,19.531
26.367,30.762,-43.457,27.344,73.242
30.273,29.785,9.277,24.414,50.293
45.41,32.227,50.781,27.344,6.836
46.387,33.691,150.391,26.855,-19.043
35.645,36.133,285.645,24.414,26.367
26.855,36.621,7.324,22.949,0.977
23.438,35.645,-11.23,24.902,-7.812
28.809,32.715,258.301,25.879,40.039
36.133,34.668,396.484,24.902,11.719
32.715,35.156,208.008,25.391,67.871
23.926,36.133,-90.332,22.949,43.945
33.203,40.039,49.805,23.926,9.277
47.852,41.992,180.176,33.203,58.105
51.758,42.48,251.465,37.598,6.348
39.551,40.527,372.07,28.809,-27.344
28.809,37.598,116.211,23.438,46.875
32.715,39.551,-16.602,22.949,18.066
35.645,40.527,179.688,23.926,42.48
35.156,38.574,349.609,24.902,33.203
35.645,36.133,345.703,23.926,0
30.273,37.109,37.109,20.02,19.043
24.902,41.016,-148.438,17.578,-23.438
30.762,41.016,62.988,15.137,15.137
33.691,40.039,296.387,13.184,25.879
26.855,40.039,425.781,15.137,13.184
20.508,42.48,166.504,10.254,35.645
17.09,41.992,-47.852,12.207,17.09
24.414,40.039,65.43,20.02,-10.254
41.016,39.551,282.227,24.902,-28.809
41.992,39.062,317.871,26.855,-51.758
32.715,43.945,34.18,24.414,-20.996
33.691,50.293,-71.777,29.297,69.336
37.598,45.898,-23.926,27.344,20.02
32.227,37.598,180.176,18.066,-2.441
27.832,36.133,341.309,22.461,85.449
22.461,39.551,80.078,24.902,52.246
18.066,38.574,-130.859,20.508,23.438
20.996,36.621,24.902,18.066,44.434
31.738,37.598,76.66,21.484,17.578
34.668,38.574,178.223,23.926,-18.555
25.391,37.109,149.902,23.438,-12.695
22.461,36.621,-136.719,21.484,-17.09
25.879,38.574,-38.086,20.02,16.602
35.156,37.109,210.449,17.09,46.387
41.504,36.133,252.441,17.578,-1.465
29.297,35.645,-48.34,19.531,-38.086
15.137,38.086,-329.102,16.602,-45.41
15.137,36.133,-78.125,13.184,11.23
28.32,32.227,114.746,14.16,54.688
32.227,33.203,134.277,12.695,-12.695
23.926,36.621,170.898,17.09,-27.344
20.508,39.551,-154.785,18.555,-14.16
22.949,38.574,-124.023,12.207,24.902
36.621,36.621,123.047,13.672,13.672
40.527,32.715,280.273,20.996,40.527
27.344,30.273,126.953,20.02,72.266
23.438,33.691,-204.102,18.066,62.012
25.879,32.715,-263.184,20.02,33.203
30.273,31.25,-66.895,17.578,-23.926
33.203,35.645,260.254,13.672,-14.16
29.297,35.645,254.883,14.648,72.754
16.602,33.203,-176.27,16.602,66.895
13.184,33.691,-189.941,12.207,0.977
20.996,33.691,31.738,12.695,11.23
25.879,34.18,194.824,20.02,12.207
26.855,38.086,217.773,14.16,14.16
14.16,35.156,-81.543,7.812,48.828
10.254,34.18,-117.188,12.207,83.008
26.367,33.691,21.973,15.137,55.176
37.109,31.738,-29.297,16.113,-0.488
37.109,37.109,140.625,18.066,42.969
24.414,39.551,101.562,18.555,33.203
11.23,37.598,-81.543,15.625,8.301
17.578,36.133,48.828,16.113,36.621
30.273,36.133,238.281,19.531,21.973
33.203,40.527,278.32,22.461,8.789
22.461,38.574,-18.066,21.973,22.461
15.625,34.18,-123.047,19.043,5.859
23.438,37.109,44.922,16.602,-17.578
37.109,38.574,337.402,22.949,79.102
35.645,35.645,385.742,24.902,124.512
20.996,34.668,-6.348,17.09,89.355
14.648,35.645,-214.355,9.277,41.504
21.973,35.645,97.168,9.766,2.441
30.762,37.598,237.305,13.184,37.598
26.855,39.062,267.578,10.254,6.348
16.113,38.574,265.625,10.254,-8.789
12.695,36.133,27.344,10.742,41.992
16.113,38.086,118.652,9.766,84.961
26.855,41.504,298.828,6.836,35.156
32.227,37.109,323.73,7.812,-35.156
21.484,35.156,197.266,10.254,-19.531
15.625,37.109,-6.836,7.324,22.461
20.508,39.062,13.672,6.348,14.16
22.461,35.156,183.594,10.254,35.156
20.02,34.18,352.051,13.672,63.965
14.16,34.668,346.191,14.16,30.273
4.883,31.738,29.785,17.578,-10.254
7.812,31.738,30.762,21.973,-3.418
17.09,32.227,234.375,19.531,-7.812
14.648,31.25,391.113,17.578,-4.883
6.836,31.738,267.578,15.137,25.879
-0.488,33.203,-63.477,13.184,-1.465
-3.906,32.715,-25.391,9.277,0
4.883,31.25,150.879,7.324,-10.742
8.301,33.691,264.648,8.301,-18.066
9.277,38.574,199.219,9.277,16.602
-3.418,35.645,-56.641,3.418,-8.789
-11.23,32.227,-1.465,-1.953,-36.133
2.93,34.18,146.484,2.441,-35.156
10.254,35.645,320.312,4.883,9.766
7.324,35.156,305.176,6.348,17.578
-0.977,34.668,-50.293,0.488,-10.742
1.465,34.668,-73.73,-2.441,27.832
15.625,38.086,102.051,3.418,39.551
20.508,37.109,189.453,10.254,21.973
16.602,31.738,293.457,12.695,45.898
8.301,28.32,15.137,10.742,69.824
4.395,27.344,-138.672,10.254,60.059
15.625,22.461,78.613,21.484,30.762
27.832,26.855,326.66,30.762,51.27
16.602,38.574,341.309,21.484,18.555
5.859,35.645,37.109,17.578,14.648
7.812,29.297,-113.281,20.02,47.363
15.137,29.297,53.711,19.043,21.484
28.32,28.809,169.922,20.508,42.969
34.18,30.273,261.23,21.973,72.266
29.297,30.273,153.809,22.461,69.336
17.578,28.32,-118.164,19.043,48.828
21.484,29.785,-38.574,18.555,0.977
35.156,29.785,97.168,19.043,-19.531
26.855,25.879,260.742,17.09,22.461
15.137,28.32,246.094,16.113,69.824
12.207,29.297,-119.141,19.531,28.809
14.648,26.855,-18.066,15.625,16.602
22.461,26.855,272.949,13.184,9.766
26.855,29.785,322.266,20.996,-11.719
21.973,33.691,90.82,25.391,0
14.648,34.668,-156.25,21.484,39.062
19.531,34.668,-52.734,19.043,61.523
26.855,36.621,152.832,19.531,57.129
34.18,32.715,183.594,28.32,52.734
30.273,29.297,-28.809,35.645,41.992
20.508,28.809,-216.797,28.809,44.434
26.855,29.297,-55.664,22.461,46.387
39.062,34.18,29.785,26.855,34.18
44.434,36.133,47.852,24.902,24.902
32.715,33.203,97.168,18.066,20.508
18.555,32.715,-208.984,20.02,3.418
22.461,39.062,-224.121,23.438,-52.246
33.203,37.109,52.734,26.367,-10.742
39.551,34.18,179.688,27.344,31.738
32.715,34.668,52.734,24.414,6.836
19.531,34.18,-294.434,23.926,55.664
18.555,33.203,-322.754,24.414,43.945
27.832,32.227,-18.066,25.391,11.719
33.203,32.715,74.219,24.902,54.688
25.879,32.227,82.52,20.508,39.062
17.09,33.203,-86.426,16.113,20.02
18.555,35.645,-238.77,15.137,19.531
29.785,35.156,-44.434,15.625,21.484
36.133,34.668,199.219,22.461,62.988
31.25,34.668,54.199,25.879,6.836
20.996,35.156,-234.863,20.02,-27.344
18.555,35.645,-261.23,19.043,-7.812
30.273,33.203,-83.496,20.02,28.809
35.156,33.691,18.555,20.02,62.012
30.273,36.621,59.082,22.461,4.395
23.926,39.062,16.113,23.926,48.34
16.602,36.133,-207.52,18.066,75.195
23.438,33.691,-108.398,18.555,15.137
33.691,37.598,146.973,25.391,68.359
32.227,37.109,130.371,24.414,82.031
32.715,36.133,-193.359,20.996,10.254
29.297,36.133,-342.285,20.508,37.598
31.25,34.18,-201.66,25.879,-6.836
43.457,33.691,51.27,29.785,-5.371
46.875,35.645,53.711,31.25,37.598
33.691,37.598,-209.473,27.832,47.852
19.043,34.18,-382.324,23.438,44.922
23.438,33.203,-201.172,17.578,-5.371
36.621,34.18,-1.465,20.508,-25.391
38.086,33.203,79.59,24.902,21.973
27.832,36.133,-91.309,20.508,56.152
22.949,34.18,-409.668,20.996,38.086
22.949,30.762,-328.613,22.949,-28.809
30.762,31.738,-158.203,18.555,-2.93
41.504,30.273,-82.52,20.02,62.012
34.668,29.785,-137.207,25.879,0.488
20.996,38.086,-457.031,18.066,4.883
23.926,41.504,-342.773,8.789,85.449
24.902,37.598,-133.789,6.836,44.922
28.809,37.598,-149.414,13.672,-40.039
29.785,39.551,-63.965,16.113,21.484
14.16,37.109,-295.41,12.695,39.551
18.066,39.551,-319.336,17.578,75.195
36.621,41.504,-130.859,18.066,116.699
45.41,37.109,-57.617,18.555,69.824
40.527,36.133,-162.109,19.531,36.133
26.855,33.203,-450.195,17.09,32.715
23.438,30.273,-432.129,15.137,62.012
44.922,31.25,-272.949,18.066,41.992
50.293,32.227,-221.68,23.438,18.066
41.016,32.227,-128.418,19.043,24.902
36.133,31.25,-291.504,17.09,1.953
34.668,29.785,-437.012,16.602,-10.254
45.41,33.203,-275.391,21.973,8.789
52.246,31.25,-33.203,23.438,27.832
38.086,28.32,-29.297,17.578,40.039
24.902,27.344,-386.23,19.531,22.949
32.715,25.391,-510.742,22.949,13.184
41.016,27.344,-279.297,21.973,18.555
53.223,28.32,-109.375,25.391,-34.18
48.34,31.738,-190.43,23.926,-25.879
30.762,32.715,-384.766,20.508,49.805
29.785,29.785,-470.215,17.578,2.441
43.457,31.738,-251.465,20.508,-52.246
50.293,32.715,-148.926,27.344,36.133
49.805,30.762,-229.492,26.855,19.043
41.504,32.227,-225.098,22.949,7.324
28.32,34.668,-433.105,18.555,67.383
36.133,39.551,-353.516,19.531,2.441
48.828,39.551,-39.062,20.02,41.016
39.062,32.227,-34.18,20.02,72.266
29.785,32.227,-353.027,22.949,-13.184
25.391,36.133,-627.441,18.066,-8.789
24.414,36.621,-397.949,15.625,22.949
36.133,34.18,-108.398,23.438,20.508
37.109,31.25,-52.734,25.391,45.41
27.344,31.25,-214.844,23.438,77.148
23.438,33.203,-506.836,26.367,62.988
32.715,38.086,-387.207,25.879,60.547
43.457,38.574,-248.535,22.949,35.645
46.387,34.668,-163.574,26.855,20.996
41.016,38.086,-268.555,27.344,55.664
36.621,41.504,-635.254,23.926,-21.484
38.086,38.574,-443.848,21.973,-12.207
50.293,37.598,-187.5,18.555,68.848
49.316,34.18,-325.195,10.254,28.32
27.832,32.715,-321.289,10.742,8.789
13.672,34.668,-342.285,12.207,15.137
19.043,33.691,-396.484,6.836,-12.207
33.691,33.691,-217.285,8.789,0.977
42.48,31.738,-102.539,7.324,4.883
35.645,31.25,-136.23,8.789,43.945
21.973,32.227,-411.621,13.672,83.008
21.973,35.645,-479.98,10.254,24.414
26.855,34.668,-213.379,10.254,25.391
33.203,32.715,-35.645,11.23,58.105
32.715,34.668,-190.918,12.207,56.152
23.438,33.203,-476.562,13.672,63.477
33.691,36.621,-403.32,19.043,60.547
42.969,34.668,-112.305,24.414,-5.371
46.387,33.691,-121.582,22.461,-10.254
43.457,40.039,-147.949,19.531,14.16
28.32,36.621,-212.402,17.578,-37.598
25.391,33.203,-317.871,18.066,2.441
35.156,30.762,-111.328,18.555,21.484
35.645,33.203,65.43,20.996,9.766
26.367,36.621,27.832,22.949,16.602
18.555,37.109,-245.117,19.531,-3.906
19.043,43.945,-447.754,16.602,12.207
25.879,38.574,-125.977,14.648,52.246
27.832,35.156,17.09,18.555,22.949
20.996,35.156,-71.777,20.996,-28.32
9.766,33.691,-26.367,18.066,25.391
3.418,33.203,-241.699,20.508,-4.883
14.16,30.762,-147.461,19.043,-36.133
24.902,33.691,118.164,18.555,9.766
19.043,36.133,168.457,21.973,25.879
10.742,32.715,-76.172,20.508,15.625
6.348,30.273,-304.199,14.648,-20.02
15.625,33.203,-111.328,11.23,-7.812
28.32,34.18,62.012,17.09,35.645
29.785,31.25,153.809,17.578,75.684
19.043,30.762,47.363,11.23,72.266
9.277,29.297,-269.043,10.742,-1.465
15.625,33.203,-121.582,15.137,3.906
29.785,35.645,86.914,17.578,55.176
26.367,34.668,147.461,15.137,34.668
8.789,30.273,71.289,8.789,25.879
-0.977,29.297,-231.934,1.953,-6.836
1.465,31.25,-125,5.371,-4.883
18.066,26.855,119.141,9.277,40.527
26.367,27.344,137.695,9.277,41.016
16.602,30.273,54.199,12.207,70.801
7.812,31.25,-212.891,17.09,40.039
13.184,32.715,-90.82,15.137,9.766
27.832,31.738,228.027,11.719,28.809
17.578,35.156,131.836,20.02,39.062
10.742,40.039,54.688,19.531,-2.441
10.254,34.668,4.395,11.23,-15.625
0,30.762,-112.305,13.184,-17.578
14.648,32.715,126.953,17.09,-4.883
28.809,33.203,424.805,16.602,91.309
22.461,34.668,274.414,14.16,65.43
3.418,36.621,-54.688,7.812,9.766
4.883,34.668,-139.16,6.348,27.344
23.926,30.273,106.445,12.695,15.625
25.391,29.785,418.457,17.09,34.668
18.066,36.621,391.602,20.02,5.859
20.508,39.062,109.863,21.484,-22.461
25.879,35.645,65.918,22.949,51.758
23.926,32.715,312.988,19.531,74.707
21.484,27.832,443.359,20.996,43.457
24.902,26.855,423.828,24.902,33.203
21.973,28.809,250.977,21.484,77.637
17.09,30.273,32.227,18.555,17.578
20.508,33.691,373.535,17.578,30.762
33.203,33.691,517.09,19.531,41.992
31.25,28.809,306.641,21.973,8.789
16.602,26.367,401.855,23.926,78.613
20.02,29.785,379.883,23.926,45.898
24.414,29.297,461.426,28.32,-9.766
26.367,28.809,642.09,30.273,-33.691
26.367,28.32,687.988,29.297,12.695
20.508,27.344,504.883,28.32,64.941
20.996,29.785,290.527,22.949,40.039
24.902,30.273,436.523,20.508,-14.16
16.602,29.785,677.246,25.391,-9.766
15.625,26.367,734.863,27.344,25.879
14.16,26.367,470.703,23.438,-24.902
7.812,28.32,274.414,22.949,-42.48
16.113,28.809,522.461,26.855,1.953
30.762,31.25,793.457,37.598,-20.02
32.715,32.715,743.652,35.645,-24.414
17.09,34.18,709.473,28.32,26.367
9.277,33.203,564.941,31.738,12.695
24.414,34.668,548.34,30.762,-35.156
39.551,37.598,787.598,25.391,-22.461
42.48,36.133,903.809,28.809,63.965
32.715,34.18,743.164,31.738,46.387
19.531,34.18,461.914,26.855,3.906
29.297,36.133,458.984,23.926,24.902
41.016,36.621,769.043,29.297,9.766
40.039,36.621,785.156,30.273,-11.23
39.062,39.062,705.078,25.879,25.879
28.32,39.062,688.965,21.484,53.711
25.879,37.109,609.863,22.949,39.062
39.551,35.156,820.312,28.32,42.48
46.387,32.715,930.664,26.855,58.594
44.922,33.691,782.715,28.809,47.363
26.855,32.227,509.277,25.879,25.879
26.367,33.203,458.984,22.949,7.812
37.598,32.715,749.512,23.438,30.762
33.203,35.156,783.691,18.555,78.613
26.855,40.039,694.336,19.043,94.238
16.113,37.598,580.078,15.625,63.477
14.648,35.645,420.41,14.16,-9.766
25.879,34.668,676.27,18.555,7.324
33.203,33.691,772.949,13.184,36.621
22.461,33.691,699.219,11.719,54.688
16.602,33.691,510.742,15.625,37.109
21.484,31.738,334.961,9.277,-8.301
24.414,32.715,555.176,7.812,-11.719
37.598,36.621,752.93,20.02,20.996
38.574,36.621,700.684,24.414,60.059
28.32,34.668,350.098,26.855,12.207
29.785,35.156,212.402,24.902,27.344
35.156,35.645,542.969,22.461,52.246
37.109,30.273,687.5,21.484,38.574
31.25,31.738,606.445,20.996,26.367
22.461,34.668,437.988,21.484,-0.977
18.555,34.668,266.113,20.996,37.109
22.949,32.227,433.105,22.949,74.707
27.832,29.785,497.559,25.391,-0.488
25.879,32.715,456.055,26.855,-34.668
20.02,31.738,495.117,26.367,46.875
6.348,26.367,314.941,25.879,69.336
11.719,24.902,272.949,21.973,54.199
33.203,31.738,466.797,22.461,0.977
35.645,37.109,512.695,23.438,14.16
21.484,34.668,458.984,23.438,73.73
11.719,31.738,301.758,23.926,48.828
13.672,32.715,294.434,17.09,19.043
24.414,30.273,457.52,16.602,-24.902
23.926,28.809,532.715,22.949,-19.043
14.16,31.738,440.918,16.113,27.832
4.395,34.18,188.477,9.277,45.898
9.277,33.203,186.035,10.742,66.406
21.484,31.738,419.922,13.184,16.602
21.484,33.203,511.719,19.043,-3.906
17.578,31.25,395.508,18.555,104.98
11.719,31.25,160.645,15.625,68.359
12.207,31.738,108.398,16.113,-27.832
30.762,28.809,443.359,20.02,-7.812
38.574,27.832,422.363,20.02,34.668
29.297,32.715,217.773,21.484,2.441
17.578,36.621,193.359,20.508,-23.926
20.508,36.133,140.625,14.648,-10.254
33.691,35.156,386.719,18.066,47.363
29.785,31.25,505.859,19.043,62.012
24.902,29.297,315.43,17.09,1.953
20.996,29.785,24.902,19.043,45.41
15.137,32.715,-51.758,17.578,57.129
23.926,34.18,288.086,16.113,6.348
39.551,30.273,461.914,20.996,39.551
32.715,30.273,322.754,20.508,67.383
15.137,33.203,59.57,13.184,2.93
8.789,33.203,-43.945,12.207,34.668
18.555,33.203,198.73,11.719,39.551
25.879,35.645,243.164,11.719,-3.906
13.184,36.133,124.512,14.16,31.738
-0.977,31.738,62.012,9.277,4.395
6.836,31.738,-63.477,10.742,20.02
18.555,36.133,32.227,18.066,33.203
24.902,33.203,180.176,17.09,-8.789
30.762,29.297,158.691,20.02,41.504
21.484,33.203,8.789,20.508,23.926
19.043,33.691,-133.789,19.531,-41.016
18.555,29.785,56.152,14.648,-12.695
15.625,29.785,228.027,16.113,4.883
20.996,33.691,175.293,25.391,16.602
23.926,33.691,-33.691,27.832,27.344
20.508,31.25,-277.832,27.832,-3.418
22.461,33.691,-112.793,20.508,11.23
33.203,34.668,168.457,22.461,76.66
31.738,33.203,85.938,27.832,73.242
23.926,36.133,-173.34,27.832,20.02
16.113,38.086,-307.617,21.973,-16.113
19.531,38.086,-124.023,17.09,32.227
27.832,38.086,100.586,16.113,55.176
28.809,34.18,77.148,15.625,49.805
20.02,32.715,-133.301,17.09,32.227
5.859,32.227,-316.895,14.16,-13.184
6.348,30.762,-218.75,10.742,4.395
23.438,31.738,57.129,11.719,25.879
35.645,36.133,-5.371,10.254,65.43
20.508,34.18,-209.961,6.836,30.762
11.719,28.809,-321.777,7.324,35.156
17.09,28.32,-292.48,7.812,97.168
32.715,30.762,47.363,12.207,41.016
37.598,30.273,-27.832,17.578,0.977
25.391,30.762,-232.422,14.648,2.93
11.23,32.715,-219.727,11.719,19.043
15.137,34.18,-272.461,15.137,20.02
29.297,32.227,-27.344,17.09,58.105
38.574,29.297,61.035,24.902,82.52
43.945,28.809,-148.926,28.809,34.668
28.809,29.297,-343.262,23.926,-11.23
21.484,31.25,-398.926,26.367,-7.324
37.109,28.32,-191.895,34.18,18.066
50.781,29.297,-93.75,29.785,26.855
48.828,34.18,-215.82,25.879,-5.371
39.551,35.645,-238.281,29.297,-1.465
31.738,36.621,-297.363,25.391,34.668
32.227,36.133,-143.555,23.438,23.926
43.945,38.086,17.09,25.391,46.875
41.016,37.109,-83.496,18.066,47.363
26.855,34.668,-300.781,13.672,37.109
17.09,31.738,-453.125,12.207,18.066
24.902,32.715,-216.797,7.812,41.992
33.203,34.668,-52.734,13.184,44.434
32.227,35.156,-139.648,17.578,23.438
29.297,34.18,-315.918,13.184,44.434
22.949,35.156,-411.621,12.207,41.992
27.344,37.109,-189.941,15.137,75.195
36.621,36.133,-32.715,13.672,42.48
36.621,41.016,-240.723,15.137,13.672
26.367,43.945,-325.195,15.625,35.645
23.926,43.457,-335.449,16.602,31.25
34.18,41.504,-270.508,20.508,26.855
45.41,38.086,-55.664,21.484,8.789
40.527,36.621,-64.941,24.414,-1.953
31.738,39.551,-224.121,25.879,75.684
30.762,41.504,-523.926,23.926,79.59
25.879,40.039,-466.309,22.949,40.039
30.273,39.062,-84.961,25.391,64.941
36.621,37.598,-143.066,27.832,59.57
32.227,38.086,-334.961,27.832,36.133
29.297,41.016,-368.652,28.809,19.531
30.273,41.016,-371.582,24.414,-0.977
36.621,38.086,-106.934,17.578,26.855
30.762,36.133,-77.148,22.461,8.789
22.461,36.133,-296.875,25.879,-22.949
18.555,40.527,-455.566,18.066,63.477
14.16,40.527,-483.887,14.648,82.031
20.02,35.156,-299.316,20.508,16.602
24.414,36.133,-292.969,20.508,-28.809
18.066,38.086,-363.281,17.578,11.23
15.625,39.062,-394.043,22.949,46.387
11.719,39.062,-474.121,29.297,28.809
10.254,37.109,-208.984,27.832,-26.855
18.555,35.645,-77.637,24.414,-33.691
14.648,34.18,-223.633,27.832,11.23
7.812,34.668,-452.637,25.879,13.184
11.719,32.715,-526.367,19.043,0
12.695,28.809,-234.375,16.113,22.461
21.484,29.297,-114.258,21.973,12.207
20.02,30.273,-284.668,24.414,8.789
3.418,29.297,-508.301,18.555,9.277
-3.906,25.391,-536.133,17.09,-1.953
5.371,21.973,-146.484,14.648,51.758
15.625,20.996,-51.758,14.648,39.062
3.418,20.02,-339.844,17.09,-7.812
-5.371,23.438,-431.152,19.043,20.996
-1.953,22.949,-462.402,18.555,5.371
3.418,23.926,-235.84,21.484,-12.207
16.602,24.902,-26.367,25.391,27.832
18.555,23.438,-135.254,23.926,53.711
8.789,25.391,-399.414,20.996,-2.93
2.93,27.344,-631.348,21.484,-33.691
12.207,28.809,-407.227,29.297,5.859
21.484,27.344,-13.672,37.109,34.668
18.066,24.902,-204.59,38.574,54.199
9.766,26.855,-404.297,37.598,68.359
14.648,25.391,-406.738,40.527,49.316
26.367,23.926,-375.488,40.527,-6.836
32.227,24.414,-128.906,39.551,-45.41
29.297,21.973,-176.27,41.504,-18.555
24.414,22.949,-398.438,40.039,11.23
25.391,22.461,-487.305,35.156,29.297
31.25,21.484,-400.391,36.133,20.996
44.434,20.02,-216.309,41.992,19.043
41.016,24.414,-154.297,41.016,36.133
32.715,25.879,-263.672,37.109,31.738
25.879,23.926,-478.027,36.133,22.949
33.203,28.32,-437.988,39.062,34.18
41.016,27.344,-100.098,41.992,54.199
35.645,27.832,-183.105,40.527,42.48
36.133,32.227,-432.617,38.574,-3.418
28.32,29.785,-388.672,37.109,13.672
21.973,27.344,-371.582,35.645,17.578
35.645,28.809,-102.539,35.645,28.809
47.363,33.203,21.973,40.039,100.098
38.086,34.18,-252.93,41.016,75.195
28.809,32.227,-443.359,35.156,42.48
30.762,32.715,-343.262,33.203,42.48
40.527,32.715,-40.039,37.598,22.461
46.875,31.738,-27.344,33.203,-8.789
40.039,31.738,-305.176,18.555,-50.293
30.762,33.691,-329.102,14.648,-85.449
32.227,32.715,-236.816,18.555,-21.973
41.504,34.18,-0.488,24.414,29.297
45.41,38.086,128.418,29.785,57.617
33.203,37.598,-38.574,29.785,44.922
18.555,36.621,-319.336,31.738,-62.988
24.414,39.062,-416.016,31.738,-32.227
39.062,40.527,-151.367,24.902,-11.719
43.457,41.016,102.051,31.738,-31.738
36.133,36.621,-18.066,31.738,30.762
25.879,34.668,-130.371,25.879,69.824
30.762,37.109,-150.391,27.344,68.848
36.133,36.133,-18.066,26.855,67.871
45.898,37.598,170.41,30.273,68.848
46.875,37.109,97.168,38.086,117.188
29.785,37.109,-152.344,34.668,96.191
23.926,38.086,-333.496,24.902,12.695
38.574,36.621,-101.074,25.879,50.781
45.898,34.18,100.586,28.32,23.438
35.645,35.156,-39.062,25.391,41.504
22.949,32.715,-188.965,22.461,23.926
16.602,31.738,-203.125,22.461,-70.312
22.461,31.25,-68.848,19.043,-9.277
31.738,28.32,202.637,21.484,-3.906
34.18,30.273,209.961,28.32,10.742
22.949,29.785,-54.199,25.879,18.555
11.719,25.879,-263.184,21.484,5.371
19.043,26.855,-179.199,20.508,-30.273
33.203,28.32,148.438,21.973,-22.949
43.457,29.297,242.676,26.855,78.613
36.133,26.855,-99.121,27.344,100.098
18.066,26.855,-340.82,20.996,33.203
22.949,30.762,-138.184,20.02,28.32
40.527,29.297,201.172,27.344,21.973
46.875,26.855,101.074,33.203,9.277
34.668,32.227,-145.996,29.785,37.109
26.367,36.133,-170.41,26.367,59.082
26.855,32.227,-187.5,27.832,-19.531
37.598,31.25,170.898,26.367,-23.438
39.062,34.18,258.301,29.785,34.18
28.32,32.715,12.695,30.762,31.25
20.996,31.738,-216.797,26.367,15.137
20.02,32.715,-320.801,22.949,-3.906
34.668,31.738,39.551,24.902,29.297
43.457,30.762,206.543,29.785,36.621
31.25,30.762,10.742,24.414,59.082
15.625,31.738,-158.203,20.508,68.848
12.695,30.762,-265.137,19.531,5.371
17.09,30.273,38.574,15.625,35.645
22.949,34.18,139.16,21.484,24.414
22.461,38.086,-45.898,25.391,40.039
13.672,35.645,-238.77,22.461,56.152
12.695,37.598,-290.527,18.066,4.883
21.484,38.086,8.789,22.461,46.875
31.738,35.156,113.77,28.32,16.113
25.879,37.109,-217.285,23.438,-39.551
9.766,36.133,-365.723,16.113,-51.758
11.23,34.668,-129.395,18.066,-32.715
26.367,36.133,70.312,20.996,-6.836
27.344,37.109,195.801,18.066,-13.672
24.902,38.086,55.176,16.113,43.457
28.32,41.504,-183.105,17.09,58.594
24.902,40.527,-290.039,15.625,47.363
30.762,40.527,-119.141,16.602,71.289
45.898,41.992,109.863,19.531,32.715
41.504,35.645,-14.648,19.531,-1.465
26.855,32.227,-292.969,12.207,-5.859
25.391,32.227,-386.719,6.348,14.16
36.133,34.18,-153.809,10.254,22.949
44.922,37.109,195.312,17.578,10.254
34.668,36.133,148.438,18.066,58.105
18.066,34.18,-148.438,14.648,37.109
11.719,30.762,-310.547,11.23,-16.602
21.484,30.273,-161.133,13.184,22.461
34.668,33.691,136.23,15.137,46.875
27.832,37.109,90.82,11.719,44.922
21.484,37.598,-174.805,12.695,-23.926
17.578,33.203,-268.066,9.766,-16.113
11.23,28.809,-227.051,15.625,62.012
21.973,27.832,41.992,19.043,46.875
29.297,32.227,147.461,16.113,63.477
21.973,33.691,-87.891,20.02,53.223
16.113,28.809,-196.289,13.672,5.859
33.203,30.273,-145.02,8.789,-10.254
40.039,32.227,150.391,18.555,12.207
36.133,29.297,189.941,25.391,32.227
33.691,27.832,-240.234,20.508,20.02
28.32,29.297,-223.145,17.578,77.148
32.227,30.273,-32.227,20.02,44.922
39.551,27.832,148.926,22.461,-2.441
43.945,29.297,187.5,25.879,9.766
36.621,27.344,-102.051,20.02,2.441
29.297,29.785,-161.133,13.672,-50.293
32.227,33.203,-0.977,16.113,5.371
48.828,31.25,167.969,22.461,68.848
57.129,30.762,270.508,26.367,68.848
46.875,32.227,121.582,25.879,56.641
40.039,33.691,-141.602,22.949,13.184
35.156,31.738,-205.078,18.066,-2.441
44.922,35.156,60.059,17.09,13.672
56.641,37.109,263.672,20.02,15.137
44.922,32.715,136.719,19.531,39.551
34.18,31.738,-183.594,18.555,43.945
38.574,32.227,-248.535,20.02,27.832
41.992,30.762,68.848,20.996,-15.137
43.457,33.203,308.594,16.113,-16.113
41.016,35.156,163.574,15.137,8.301
29.297,36.133,-78.125,18.066,-1.465
22.949,37.598,-184.082,13.672,-15.625
31.738,37.109,-36.133,11.719,-0.488
43.945,35.156,331.055,13.672,41.504
43.457,37.598,113.77,15.625,34.668
33.203,37.598,-201.172,16.602,-26.855
25.391,32.715,-104.004,16.602,-19.043
28.32,33.203,-53.711,13.672,-15.625
41.504,34.668,233.398,13.672,-4.883
41.016,35.645,176.27,10.742,36.621
24.902,39.551,-115.234,9.766,35.156
23.438,37.598,-117.676,8.301,-43.457
32.715,34.668,40.039,4.883,-27.344
33.203,36.621,323.242,11.23,41.992
25.391,32.715,263.672,14.16,25.391
19.043,31.25,36.133,13.184,52.246
9.277,33.691,-208.496,12.695,15.625
9.766,36.621,-105.469,6.836,7.812
26.367,36.621,302.734,5.371,53.711
29.297,36.133,201.172,11.23,54.688
20.02,39.551,-79.102,12.207,85.938
17.09,39.551,-71.777,6.836,57.129
20.996,39.062,40.527,9.766,41.992
29.785,35.645,254.883,15.625,3.418
32.227,31.25,278.32,18.555,-35.156
26.367,34.18,97.168,20.508,44.434
11.23,36.133,-103.516,13.184,26.367
12.207,37.109,-54.199,3.906,70.801
24.902,38.086,195.312,7.812,57.129
20.996,33.691,276.855,6.348,1.465
11.23,31.738,110.352,7.324,37.598
5.859,34.668,-168.945,11.23,23.926
10.742,36.133,-184.57,13.184,51.758
23.438,37.109,187.988,18.555,35.645
28.809,40.039,373.535,18.066,-17.578
28.809,40.527,56.641,20.996,81.055
27.832,38.574,-143.066,22.461,89.355
15.625,36.621,-34.18,17.578,17.578
16.602,37.109,179.688,20.02,27.344
19.531,35.156,332.52,27.832,23.926
5.371,32.227,161.133,31.738,10.742
0.488,34.668,-49.316,25.879,26.855
5.371,33.691,-160.156,19.043,-5.371
16.602,30.273,-12.695,22.949,-40.527
24.414,29.297,285.645,28.32,-0.488
17.578,29.785,103.027,28.809,6.836
7.812,32.715,-114.746,26.855,-3.906
7.812,32.227,1.465,27.344,-32.715
22.949,32.227,154.785,29.297,-51.758
31.25,35.156,387.695,33.203,-20.02
26.855,35.156,294.922,34.668,-5.371
21.973,35.645,26.367,34.18,-9.277
15.625,33.203,-55.664,36.133,20.02
17.578,34.668,140.625,38.574,79.59
25.391,34.18,370.117,41.504,38.086
20.996,31.25,260.254,41.016,38.086
8.789,30.762,11.23,39.551,36.133
1.953,27.832,18.066,32.227,38.574
8.789,28.32,154.785,27.832,44.922
22.949,30.762,387.695,30.273,20.02
19.043,26.855,321.777,29.785,88.379
2.441,25.391,23.438,29.297,67.871
-5.371,22.461,43.945,28.809,17.578
2.441,20.996,207.031,29.297,58.105
19.531,24.902,437.988,38.086,61.523
23.926,22.461,403.809,46.387,2.93
12.207,24.902,126.953,36.621,-50.781
6.348,30.273,-30.273,28.32,6.836
16.113,29.297,148.438,35.156,144.043
28.809,30.273,479.492,40.039,94.727
34.668,31.738,453.125,39.062,5.371
28.809,32.227,81.055,35.156,18.555
20.508,33.203,35.156,32.715,13.184
21.484,34.18,216.797,32.715,15.625
29.297,37.598,396.484,32.715,30.273
35.645,35.156,502.93,35.156,63.965
29.785,30.273,264.648,31.738,45.898
10.742,33.203,49.805,27.832,31.738
13.184,33.203,3.418,31.25,-39.062
23.926,32.715,192.383,32.715,-91.797
25.391,29.785,421.875,34.18,-43.457
24.902,31.25,142.578,34.668,-52.734
14.16,38.574,-22.461,29.297,-60.059
10.742,34.668,197.754,23.926,17.09
22.461,34.18,391.113,25.391,82.52
31.25,39.551,494.629,28.32,59.082
20.02,36.133,295.898,25.391,57.129
12.207,37.109,40.039,23.438,43.457
11.23,39.551,-95.215,21.973,-29.785
16.113,33.691,115.234,18.555,-39.551
28.32,33.691,519.043,26.367,40.039
19.043,33.203,244.629,28.809,80.566
8.789,32.227,-99.609,21.973,20.02
11.23,33.203,49.805,21.973,5.859
19.531,31.25,208.008,25.391,-6.348
27.344,27.832,434.57,25.391,-12.207
22.949,24.414,357.422,23.438,67.871
9.766,25.391,35.645,21.973,49.805
3.418,26.367,-124.023,22.461,-68.359
10.742,24.414,91.797,23.438,-57.617
21.973,24.414,439.453,26.367,38.086
21.973,29.297,312.5,31.25,4.395
11.23,28.809,54.688,26.367,34.668
10.254,28.32,-113.77,20.508,97.656
23.438,31.25,-54.688,24.902,15.625
31.25,27.344,409.668,24.902,5.859
30.762,27.344,355.957,23.438,34.668
21.973,30.762,-66.406,23.926,72.754
8.789,31.25,-36.133,20.508,84.473
13.672,28.32,95.215,18.555,-9.277
37.109,27.344,360.352,19.531,14.648
43.945,30.762,339.355,24.414,18.066
29.785,31.25,71.289,28.809,42.48
20.996,34.668,-76.66,27.832,44.434
26.855,35.645,-38.086,23.438,-5.859
36.621,30.762,168.457,25.391,-32.227
35.645,34.18,273.926,29.297,-16.113
18.555,39.062,102.051,27.832,50.781
6.836,37.598,-87.402,25.879,15.625
11.23,36.133,34.668,27.344,10.742
22.461,35.156,298.828,27.344,43.945
21.484,32.715,354.492,28.32,39.062
10.742,34.18,58.594,26.855,-0.977
10.742,38.574,-109.375,15.625,-13.184
15.137,35.156,-44.434,15.625,12.695
26.367,32.715,229.492,20.02,67.383
36.133,35.156,345.703,17.578,41.504
33.203,35.645,33.203,15.137,0.977
22.949,33.691,-152.344,17.09,52.246
25.391,33.203,-83.984,20.02,13.672
38.086,35.645,163.086,23.438,12.207
44.434,35.645,336.914,22.949,17.09
38.574,35.156,123.047,22.949,23.926
31.25,36.133,-99.121,20.02,64.453
37.598,37.598,-91.309,18.555,84.473
43.457,37.109,64.941,21.973,45.898
45.898,34.18,309.082,24.414,18.555
39.062,30.273,43.945,25.879,34.668
33.203,30.762,-353.027,20.508,5.371
30.273,34.18,-185.547,15.137,20.508
33.203,33.203,37.598,19.043,37.109
42.48,30.273,326.66,20.996,38.574
37.109,31.25,155.273,18.066,39.551
17.09,32.227,-264.648,9.277,23.438
14.648,30.273,-149.902,3.906,36.133
25.391,31.25,56.152,10.254,37.109
27.832,32.715,190.918,18.066,-31.25
32.715,35.645,89.844,18.066,-35.645
27.344,32.715,-128.906,14.16,-8.789
18.066,30.273,-219.238,14.648,-13.184
25.391,33.203,-97.168,13.672,16.113
38.574,35.156,88.379,20.996,14.648
52.246,38.086,6.348,30.273,-44.434
36.133,38.574,-250,24.902,-12.207
24.902,36.133,-191.406,19.043,68.359
47.363,35.645,0,21.484,95.215
52.734,34.668,160.156,21.484,50.781
42.48,29.785,124.023,21.973,17.578
35.156,29.785,-153.809,22.949,62.012
34.18,31.738,-310.547,18.555,48.34
43.945,30.273,-255.371,14.16,21.973
52.246,30.273,4.395,17.578,27.832
47.363,30.762,134.277,19.043,29.785
38.086,35.156,-161.133,18.066,31.25
34.668,39.551,-417.969,18.555,26.367
37.109,40.039,-268.555,17.09,52.734
43.457,37.598,46.387,22.461,31.25
54.199,40.039,171.387,27.832,18.066
51.27,43.457,-269.531,24.902,29.785
31.738,38.086,-536.621,20.996,17.578
37.109,33.203,-270.996,22.949,-2.93
57.617,33.203,3.906,32.227,18.555
62.988,36.621,106.445,36.621,32.715
49.805,36.621,-179.199,30.762,-14.648
33.691,35.645,-449.219,21.973,-3.906
33.203,36.621,-522.461,18.555,-7.812
43.945,35.156,-276.855,23.438,12.695
51.27,39.062,41.504,24.902,57.617
43.945,42.48,-137.207,23.926,41.992
33.203,36.621,-411.133,23.438,69.336
26.367,36.621,-437.988,21.484,56.641
31.25,39.062,-248.047,16.602,33.691
43.945,34.668,-3.906,20.508,1.953
32.227,35.156,-276.855,23.926,-19.531
16.113,37.109,-585.938,19.043,24.902
20.996,36.621,-436.035,20.508,10.254
35.156,40.039,-233.887,26.367,4.395
36.133,39.062,-63.477,22.949,22.461
36.133,36.621,-250.977,18.555,-9.277
24.902,36.133,-543.457,14.16,-1.465
15.625,35.156,-437.012,12.695,44.922
29.297,39.062,-151.367,19.531,70.801
44.922,40.527,74.707,21.973,61.523
42.48,35.645,-115.723,21.484,-3.418
20.508,31.25,-420.41,18.555,8.301
10.742,27.832,-499.512,17.09,19.531
32.227,28.32,-374.512,20.508,-21.973
45.41,32.227,-74.707,17.578,-46.387
39.551,36.621,-31.738,18.066,32.227
28.809,37.109,-395.02,16.602,71.777
27.832,35.156,-546.875,18.066,22.949
32.227,33.691,-290.039,23.438,29.297
34.668,30.273,33.691,27.344,70.312
37.109,29.785,20.996,26.855,59.082
28.809,35.156,-470.703,21.484,43.457
25.391,35.645,-541.504,20.02,62.988
38.086,34.18,-219.238,22.461,73.73
51.27,36.621,25.879,25.879,95.703
43.945,35.645,42.48,21.973,92.773
29.785,35.156,-309.082,17.578,20.996
22.461,37.109,-474.121,15.625,16.602
21.973,37.598,-456.055,12.695,32.227
29.785,36.621,-175.781,15.625,11.719
36.621,36.133,115.234,19.531,29.297
29.785,35.645,-334.961,16.113,-14.648
21.484,33.691,-601.562,20.508,-25.879
26.367,34.18,-297.363,27.344,-18.066
35.156,37.109,-56.152,24.414,-17.09
35.645,35.156,91.309,22.461,41.016
21.484,32.227,-188.477,23.438,19.043
8.789,31.738,-446.289,20.508,13.672
2.93,32.715,-414.551,15.137,26.367
13.672,34.18,-208.984,18.066,-10.254
31.25,37.109,-35.156,22.461,13.184
28.32,37.598,-298.34,20.996,47.852
23.438,41.504,-548.34,17.09,44.922
22.461,42.969,-355.469,18.555,8.301
33.203,37.109,-102.051,25.391,-4.883
42.969,36.621,85.449,26.855,11.23
36.133,39.062,-119.141,28.32,-6.836
21.484,38.086,-421.387,28.809,-12.695
19.043,34.18,-434.57,26.855,-11.23
29.297,32.227,-170.41,28.32,52.734
38.574,34.668,9.277,31.25,48.828
30.762,35.156,-184.57,29.297,-31.738
20.508,34.668,-444.824,27.344,-22.461
17.578,28.809,-454.59,19.531,18.066
23.926,15.137,-198.73,30.273,-5.371
48.34,22.461,117.676,47.363,-2.93
37.109,39.551,-3.418,25.391,33.203
8.301,39.062,-380.371,-1.953,31.738
-3.418,41.016,-427.246,-7.812,18.066
5.371,43.945,-245.117,-9.766,45.41
15.137,44.922,8.301,-11.719,17.578
6.348,49.316,-51.27,-19.043,-37.598
-0.488,53.223,-422.363,-28.32,20.996
-10.254,54.688,-462.891,-37.109,48.34
-6.348,57.617,-294.434,-34.668,27.832
10.742,60.059,-55.176,-27.344,34.18
6.836,58.594,42.48,-24.902,43.457
1.465,62.5,-235.352,-28.32,51.27
0.488,60.059,-404.785,-26.855,69.336
2.93,53.223,-333.984,-23.438,37.109
20.02,50.781,-72.266,-20.996,36.621
21.484,46.875,3.906,-5.371,57.129
7.812,45.41,-362.793,0.977,4.395
10.742,44.922,-565.43,-3.906,-20.508
16.602,42.969,-434.082,-4.883,-40.527
28.32,44.922,-150.391,-1.953,-35.156
39.062,45.41,-81.543,10.254,-62.5
25.391,42.48,-421.387,12.207,-33.691
11.719,44.434,-661.133,9.277,42.969
19.531,40.527,-398.926,13.672,41.504
24.414,34.668,-41.504,21.973,49.316
25.391,35.156,109.863,29.297,42.48
30.762,35.645,-168.945,27.832,48.828
26.367,39.551,-482.91,22.949,70.312
18.555,42.969,-506.836,20.02,16.113
27.344,42.48,-290.039,20.02,-44.434
32.227,41.504,-42.969,24.414,-24.902
20.02,40.039,-214.355,28.32,40.039
11.719,38.574,-582.031,24.414,62.5
17.578,41.992,-603.027,21.484,38.086
30.273,39.062,-257.324,23.926,27.344
34.668,37.109,34.668,32.227,-0.977
25.391,38.086,-228.516,39.551,0.977
22.461,36.621,-631.836,35.645,52.246
28.809,37.598,-576.66,31.738,3.418
31.738,38.086,-217.773,29.297,-25.391
41.016,39.062,113.281,31.25,61.523
38.086,40.039,-134.277,32.715,39.551
20.02,38.574,-489.258,31.738,23.438
21.484,37.109,-515.137,32.227,15.137
30.762,34.18,-416.992,35.156,-32.227
38.086,30.762,-71.289,40.039,-8.301
50.293,30.762,4.395,47.852,40.039
32.715,35.645,-494.629,35.645,46.387
1.953,39.551,-504.883,9.277,53.223
3.906,40.527,-159.668,10.742,44.434
20.02,39.062,45.41,14.648,38.574
17.09,37.109,-1.465,10.254,51.27
0.977,38.086,-387.695,12.207,69.824
-0.488,36.621,-493.652,11.719,93.262
5.371,35.156,-287.598,10.254,54.688
17.09,38.574,-20.508,17.09,44.434
25.391,39.062,-87.402,20.996,26.367
12.207,37.109,-362.793,19.043,4.395
2.93,41.016,-362.305,16.113,71.289
11.23,47.363,-254.395,14.16,78.125
27.344,44.434,-38.086,22.949,33.691
31.738,36.621,125.977,25.879,140.137
21.484,40.527,-278.809,24.902,84.473
19.043,41.016,-561.035,28.809,-47.852
25.391,30.273,-339.844,23.438,-12.207
30.762,30.273,-37.598,25.879,42.969
31.25,32.227,95.703,27.344,50.293
20.02,35.156,-327.148,26.367,38.086
14.16,39.062,-686.523,29.785,-17.09
19.531,34.668,-377.441,28.809,-19.043
39.551,31.738,-18.066,35.645,-8.301
43.457,27.832,145.996,42.969,-17.578
33.691,36.133,-221.191,41.504,8.789
22.949,41.016,-636.719,41.992,-31.25
15.625,32.715,-355.957,45.898,-41.016
27.344,33.203,-10.742,42.48,19.531
29.785,34.668,117.188,34.18,29.785
24.414,35.645,-150.879,35.156,16.113
17.09,35.156,-461.914,32.715,16.113
12.695,37.109,-399.414,30.762,49.805
23.438,36.621,-232.422,31.25,65.918
38.086,37.109,-25.879,29.785,46.387
33.203,42.48,-132.324,32.227,59.57
19.043,40.039,-550.781,25.879,-7.324
23.926,32.715,-363.77,22.461,26.855
38.574,32.715,7.812,21.973,116.699
47.363,37.109,126.953,25.391,77.637
47.363,40.039,-93.262,28.809,-3.906
40.039,37.598,-413.574,27.832,7.812
30.762,37.109,-433.105,27.832,34.668
37.109,38.086,-263.184,22.461,-11.23
43.457,33.203,17.09,26.855,-8.301
39.062,30.273,-55.664,28.809,34.18
36.133,34.668,-508.789,21.484,53.223
29.785,35.645,-511.23,16.113,17.578
33.203,33.203,-156.25,19.531,9.766
44.922,35.156,10.254,20.508,-16.113
41.992,36.133,4.883,21.484,-41.992
32.715,36.133,-255.371,25.879,53.711
34.18,36.621,-443.848,24.414,67.871
40.527,32.715,-327.148,21.484,32.227
46.875,32.227,-84.961,24.902,-15.625
53.223,34.668,-41.016,30.273,-32.227
41.504,42.48,-312.988,21.973,27.832
50.781,59.57,-605.469,22.949,32.227
73.73,59.082,-452.148,44.434,8.301
49.316,37.598,-38.086,28.809,10.742
21.484,29.297,28.32,2.93,-12.207
19.043,25.391,-389.16,9.277,-10.742
23.438,20.508,-588.379,12.207,26.367
26.855,26.855,-396.484,10.254,31.738
44.434,28.32,-126.465,17.09,49.805
49.805,33.691,24.902,22.949,16.113
39.551,34.668,-404.785,24.902,12.695
38.574,31.738,-728.027,23.926,20.02
36.621,32.715,-432.129,24.414,3.418
45.41,31.738,-215.82,26.367,15.625
50.781,32.715,-53.711,29.297,41.504
44.922,36.621,-250.488,32.227,75.195
37.109,37.109,-590.82,31.738,57.617
35.156,34.668,-462.891,30.762,83.496
49.805,34.668,-302.246,34.668,-1.953
47.363,36.133,-147.461,37.598,-83.984
33.203,33.203,-308.105,40.527,25.879
29.785,31.738,-743.652,35.156,15.137
30.762,30.273,-671.387,26.855,0.488
48.828,34.18,-337.402,29.785,-32.715
55.176,37.598,-110.352,28.809,-29.297
40.527,39.062,-316.406,30.273,24.902
31.738,38.086,-847.168,30.273,41.992
27.832,34.668,-779.297,25.879,49.316
40.039,33.691,-252.93,28.809,49.316
54.199,36.133,-79.59,31.738,21.973
37.109,36.621,-313.477,29.785,-7.324
20.996,34.668,-688.477,32.715,2.441
21.973,37.109,-731.445,32.715,3.906
32.227,41.992,-506.836,35.156,15.625
41.016,40.527,-258.789,38.574,3.418
33.203,34.18,-301.27,30.273,46.387
15.625,32.715,-711.914,27.832,52.734
22.949,38.086,-900.879,33.203,32.227
34.18,36.621,-641.602,37.598,3.906
35.645,35.156,-233.887,39.062,13.672
36.133,34.668,-224.121,37.598,52.246
33.691,33.691,-743.164,39.551,17.09
30.273,36.133,-898.438,35.645,-29.297
40.527,37.598,-555.176,28.809,-17.09
49.805,33.203,-280.762,34.668,11.23
46.387,33.203,-282.227,40.039,3.906
49.805,37.598,-628.906,38.574,22.949
45.898,36.621,-832.031,35.645,35.156
47.852,33.203,-703.613,34.668,20.508
59.57,34.18,-484.375,36.133,56.152
62.988,35.645,-417.48,40.527,72.266
50.293,33.691,-737.793,41.504,47.363
41.992,39.062,-946.289,34.18,20.996
51.758,43.457,-643.066,26.367,52.734
57.129,37.598,-380.371,29.785,56.152
45.898,40.039,-337.402,34.18,28.32
28.809,42.969,-627.441,28.809,61.035
15.625,38.574,-929.199,20.996,44.922
22.461,38.086,-845.703,21.484,17.578
33.691,33.203,-555.176,26.855,41.992
31.738,31.738,-396.973,30.762,73.73
29.297,34.668,-715.82,33.203,74.707
25.391,35.156,-995.605,31.738,35.156
26.855,36.621,-812.012,37.109,28.809
45.41,36.133,-537.598,35.645,42.969
50.781,38.574,-434.57,36.133,37.598
46.875,38.086,-660.645,35.645,36.621
42.48,30.762,-958.008,28.809,50.781
34.18,30.273,-967.285,22.949,34.18
56.641,33.203,-722.168,22.461,60.547
64.453,30.273,-522.949,25.879,20.508
52.246,33.203,-718.262,20.996,11.23
52.734,37.109,-947.754,22.461,19.531
50.293,37.598,-1000,26.855,-26.367
62.5,40.039,-814.453,32.227,55.664
69.824,39.062,-478.027,32.227,74.219
53.223,37.109,-631.836,28.809,46.875
48.34,37.109,-937.5,29.297,61.035
43.457,31.738,-979.98,30.273,1.465
49.316,27.344,-924.316,31.738,-13.184
50.293,27.344,-686.035,28.809,15.625
43.457,30.762,-664.551,27.344,6.836
40.527,30.762,-937.012,28.809,2.93
35.156,28.809,-993.164,27.344,29.785
41.016,28.809,-884.277,30.762,28.32
52.734,29.297,-694.824,37.598,48.828
57.617,31.738,-743.652,30.762,39.062
41.016,31.25,-921.387,25.391,-9.766
29.297,29.297,-983.887,31.25,2.441
32.715,30.762,-850.098,27.344,16.113
31.25,33.203,-583.008,18.555,9.277
33.203,30.273,-608.887,20.508,24.414
28.809,32.715,-891.113,17.09,20.508
21.973,33.203,-979.98,11.719,37.598
33.691,27.344,-970.703,14.648,5.371
43.945,25.391,-757.812,14.16,-26.367
40.039,28.32,-658.691,16.113,8.789
33.203,27.832,-911.133,20.02,-14.16
30.273,32.227,-991.211,23.926,-26.855
35.156,34.18,-910.645,23.926,-8.301
40.039,28.32,-662.598,22.949,1.465
41.504,28.32,-556.641,28.32,51.27
39.062,29.297,-825.684,27.344,62.5
36.133,25.879,-977.539,20.02,42.48
37.109,26.855,-983.398,21.973,-13.184
49.316,29.785,-832.52,27.832,-35.156
47.363,29.785,-597.168,28.32,26.367
41.992,31.25,-789.062,31.25,77.148
36.621,32.715,-974.121,29.297,66.406
34.668,31.25,-992.676,24.902,16.113
48.828,30.762,-837.891,23.438,0.488
51.27,29.785,-515.137,27.832,20.508
40.527,31.25,-697.754,35.645,23.438
35.156,34.18,-990.234,31.25,18.555
35.645,29.785,-925.781,30.762,89.355
41.992,27.832,-688.477,32.715,118.652
54.688,33.691,-520.508,33.691,28.809
49.316,33.203,-688.965,32.227,12.695
31.738,32.715,-947.754,25.391,44.434
25.391,37.109,-982.422,25.879,-4.395
32.715,36.621,-766.602,24.414,-29.297
37.109,32.715,-505.371,30.273,6.836
26.367,27.344,-558.105,29.785,82.52
13.184,26.855,-877.441,24.414,81.055
18.066,28.32,-931.152,26.367,31.738
23.438,28.32,-602.051,22.461,17.578
21.484,27.344,-297.852,21.973,33.691
15.137,29.297,-336.914,22.949,37.598
-0.977,33.203,-775.391,19.531,18.066
-9.277,28.32,-978.516,10.742,37.598
0,27.832,-556.152,7.812,-13.184
14.16,28.809,-93.262,15.625,9.277
18.066,26.367,-109.863,19.531,14.16
3.418,26.855,-651.367,16.113,1.465
-3.906,30.762,-834.473,15.137,6.836
7.812,32.715,-346.191,20.02,12.207
11.719,29.785,-6.348,24.902,50.293
15.137,22.461,-71.289,31.25,20.996
6.348,20.996,-463.379,31.738,-20.508
0.488,21.973,-596.191,27.344,-32.227
9.277,22.461,-320.312,25.879,16.602
22.949,26.855,-20.02,27.344,27.832
25.391,26.367,61.035,23.926,6.348
12.695,26.367,-264.16,20.02,-1.465
12.207,27.832,-506.348,20.508,-3.418
23.438,25.391,-392.09,17.09,16.602
34.668,26.367,-34.18,13.672,61.035
32.715,30.273,241.211,20.02,42.48
20.02,31.738,-134.277,26.367,6.836
13.184,28.32,-521.484,21.973,15.625
20.02,27.344,-222.168,20.508,31.25
35.645,34.18,103.027,25.391,42.48
39.062,36.621,162.109,29.297,-10.254
21.973,33.203,-39.551,31.25,-7.324
8.789,29.297,-362.305,29.297,41.992
19.043,26.855,-224.121,21.484,1.465
31.25,27.832,120.117,19.043,-12.695
24.902,31.25,220.703,26.855,24.414
21.484,37.598,15.137,29.297,40.527
19.043,37.598,-374.512,24.414,88.867
20.02,32.227,-294.922,20.02,59.082
29.297,31.25,122.559,24.902,-22.949
27.344,31.738,318.848,27.832,-7.324
17.09,35.645,159.18,26.367,47.363
15.137,37.598,-247.07,24.902,55.664
12.695,37.109,-314.941,21.973,0.977
16.113,35.645,-69.824,23.438,2.441
33.691,30.762,213.867,18.555,34.18
24.902,31.738,124.512,19.043,-26.855
9.277,33.691,-347.168,22.949,-68.848
7.324,32.715,-380.371,20.02,-24.902
8.789,30.273,51.758,20.996,51.27
14.648,28.32,280.762,28.32,50.293
18.066,31.25,200.195,29.297,21.484
13.672,33.203,-329.59,23.926,28.809
2.93,31.738,-531.738,17.09,-2.441
15.137,28.32,-53.711,20.02,-29.297
25.391,24.902,261.23,27.832,-6.836
14.16,27.832,250,32.227,36.621
10.254,29.785,-131.348,35.645,61.523
15.137,32.227,-325.684,29.785,73.73
22.461,38.086,-192.871,28.809,61.523
30.762,38.086,29.297,36.133,15.137
27.832,33.203,255.859,36.621,21.973
15.625,30.762,-126.465,31.738,59.57
14.16,34.18,-537.109,30.762,31.25
18.555,33.691,-142.578,30.273,-5.371
34.18,31.25,229.004,32.227,-23.438
32.715,30.273,256.836,39.551,-23.438
16.602,25.879,-69.336,40.527,30.273
20.996,28.809,-359.863,33.691,36.133
40.527,31.738,-182.129,37.598,8.301
50.293,29.785,115.234,42.48,16.113
48.34,36.621,188.965,42.48,61.523
39.062,35.156,-154.297,41.504,41.504
27.832,31.738,-540.039,40.039,4.883
33.691,31.25,-250.977,36.621,14.16
46.875,32.227,188.965,37.598,-0.977
47.363,30.762,290.527,43.457,0.488
45.41,25.391,19.043,43.945,54.688
38.086,28.32,-362.305,40.527,78.125
29.785,30.273,-335.938,35.645,11.23
50.781,28.809,-48.828,37.109,-13.184
61.523,31.738,177.246,40.527,44.922
47.852,27.344,-60.059,39.062,32.715
42.48,25.879,-486.816,32.227,28.32
40.039,26.855,-498.535,27.832,49.805
51.758,24.414,-95.703,32.715,40.527
65.918,29.785,173.34,41.016,25.391
61.035,31.25,21.973,44.922,32.715
53.711,25.391,-533.691,40.039,62.5
53.711,20.996,-619.629,43.457,34.18
62.012,25.391,-60.547,46.875,28.809
64.941,31.25,164.062,46.387,41.504
54.199,23.438,22.461,46.875,84.473
50.781,26.367,-384.277,42.969,82.52
50.293,26.855,-531.25,42.48,24.414
62.012,23.926,-325.195,44.922,11.23
72.754,28.809,-9.766,46.387,76.66
64.453,27.344,62.5,47.852,49.316
53.223,29.785,-455.566,40.527,1.953
43.457,32.715,-679.199,38.574,3.418
55.176,23.926,-126.465,48.34,45.898
72.266,22.949,157.715,51.27,27.344
60.547,24.902,54.688,46.875,24.902
48.34,21.484,-289.551,42.969,34.668
45.41,20.996,-458.496,42.48,-1.953
41.504,22.461,-199.219,46.875,10.742
51.27,18.555,105.469,51.27,38.574
54.688,18.066,60.547,48.828,52.246
51.758,21.973,-330.566,43.945,57.129
51.27,22.949,-461.914,46.387,37.109
50.293,18.555,-178.711,44.434,42.969
59.57,12.207,92.773,41.016,67.383
57.129,11.23,142.09,46.875,27.344
43.457,16.113,-236.816,48.34,-5.859
41.016,19.531,-640.625,43.945,21.484
52.246,17.578,-273.438,49.316,30.762
62.5,17.578,125,58.105,15.137
62.5,16.602,159.668,56.641,-8.301
52.734,12.695,-43.457,52.734,-9.277
43.945,18.066,-409.18,49.316,23.926
55.176,16.602,-306.152,49.805,37.109
63.965,12.207,122.07,50.781,35.645
49.316,10.254,314.453,49.805,22.461
40.527,5.859,18.555,44.922,12.695
41.992,7.812,-357.422,41.016,9.766
41.016,10.742,-256.348,46.387,-39.062
46.875,11.23,126.953,51.27,-27.344
52.246,6.348,351.562,54.199,38.086
51.27,6.836,158.203,54.688,43.457
45.41,9.766,-364.258,47.363,27.344
45.41,7.324,-296.875,41.992,29.785
57.617,10.742,107.422,48.828,-20.02
67.383,11.719,301.27,57.129,-29.785
69.336,9.766,372.07,58.594,20.508
59.57,10.742,-120.117,55.664,40.039
55.176,11.719,-229.98,55.664,43.945
72.266,12.207,298.34,56.641,23.438
78.125,7.812,465.82,60.547,2.93
73.73,5.371,351.074,65.43,26.367
66.895,4.883,-8.789,62.012,36.133
63.477,8.301,-149.414,63.965,-15.625
70.312,16.113,208.008,65.43,-7.812
78.613,15.625,451.66,64.453,-2.93
75.195,10.742,342.773,64.453,16.113
61.523,7.812,-73.73,58.105,59.082
60.059,9.277,-312.012,52.734,14.648
61.523,7.324,145.996,57.617,-30.273
72.266,4.395,601.562,60.547,-12.695
76.172,4.395,539.551,60.059,13.184
64.941,3.906,64.941,62.988,-33.691
59.082,4.883,-94.727,60.547,-1.465
74.219,2.93,194.336,62.5,29.297
83.008,3.418,458.984,65.918,25.391
70.312,6.348,488.281,63.965,46.875
59.082,3.906,57.617,63.965,-14.16
51.758,1.953,-228.516,61.523,-13.672
53.711,6.348,98.633,62.988,83.984
63.477,7.324,474.609,62.988,63.477
67.871,8.789,534.18,63.477,-1.953
63.965,7.812,185.547,69.824,15.137
58.105,1.465,-293.457,69.336,-23.438
61.523,0.488,25.879,70.312,-57.617
75.684,1.953,567.871,71.777,-25.391
78.125,1.953,636.719,72.266,21.484
63.965,1.465,308.105,70.312,59.082
55.664,1.953,-55.664,65.43,37.109
57.617,6.836,84.961,62.5,-0.977
59.57,4.883,374.512,64.453,37.598
65.43,3.418,515.625,68.848,20.02
60.547,4.883,360.352,67.871,-3.906
52.246,4.883,44.922,67.383,49.805
55.176,5.859,133.789,72.754,48.828
62.988,4.395,468.75,73.242,41.504
65.43,2.441,604.004,71.289,31.738
61.035,4.883,354.98,72.266,2.441
58.594,6.836,-114.746,69.336,14.648
65.43,9.277,29.785,64.941,51.758
66.895,6.836,534.668,68.359,20.02
62.5,0.488,657.715,71.289,0.977
60.547,0.488,427.246,67.383,23.926
52.246,4.883,-64.941,53.711,22.949
54.688,9.277,-50.293,52.734,20.02
65.918,5.859,540.039,60.547,62.012
69.824,-1.953,746.094,63.965,78.613
58.594,3.906,511.23,66.406,33.691
45.898,8.301,122.559,65.43,54.688
49.805,8.789,8.301,67.871,32.715
61.035,8.301,332.031,69.336,30.273
63.965,6.836,581.055,66.406,74.707
55.176,7.812,432.617,65.43,64.941
44.434,9.277,23.926,68.359,3.418
42.48,6.836,-126.953,60.547,-16.602
52.734,3.906,188.477,55.664,21.973
60.547,5.859,503.418,61.035,48.828
50.293,2.93,565.43,63.477,66.895
35.645,1.465,116.699,61.035,23.926
34.18,2.93,-136.719,59.082,11.719
44.922,6.836,228.516,59.57,35.645
53.223,10.254,518.066,59.57,66.406
54.199,9.277,504.883,62.5,61.035
46.387,4.395,108.887,61.523,62.988
38.574,5.371,-184.57,57.617,14.648
51.27,8.301,97.656,64.941,-50.293
66.895,6.836,396.484,71.777,4.395
65.918,8.789,423.828,67.383,29.785
56.152,8.301,223.145,69.824,51.27
46.387,8.301,-180.664,70.312,79.59
45.898,7.324,-19.043,69.336,27.344
64.941,8.301,636.23,67.871,14.648
69.824,16.113,732.422,68.359,30.762
51.27,15.137,357.91,69.824,41.992
48.34,12.695,-2.441,74.219,27.344
55.176,16.113,94.727,73.242,-24.902
57.129,16.602,458.008,76.66,-20.996
59.57,10.742,562.012,79.102,-34.668
49.316,5.859,221.191,76.66,-28.809
41.992,8.789,-125,74.707,-29.785
48.828,13.672,144.043,68.848,23.438
55.664,7.812,520.996,71.289,50.293
59.57,5.859,606.934,73.242,-2.93
49.316,11.719,444.336,69.824,-14.648
38.086,11.23,-99.121,65.43,-39.551
41.016,5.859,-58.105,62.012,0
53.223,6.836,544.434,60.547,42.969
56.152,6.348,708.984,63.477,62.012
46.875,6.348,485.352,64.941,71.289
39.062,4.883,50.781,62.5,35.645
42.969,3.906,-74.219,58.105,13.184
56.641,8.301,317.383,60.547,28.809
67.871,5.371,663.086,65.918,36.621
61.523,2.441,550.781,74.219,44.922
51.27,8.301,80.078,72.754,27.832
58.105,7.812,-118.652,62.012,-29.785
69.336,1.465,315.43,65.43,14.16
69.336,-1.953,687.5,70.312,84.473
60.059,-6.348,570.312,67.383,52.246
54.688,-2.441,57.129,66.406,44.434
52.734,1.953,-182.129,62.988,34.18
60.547,1.465,299.316,62.988,3.906
71.777,0.488,528.32,66.406,-9.277
62.5,0.488,489.746,64.941,3.418
55.176,0,214.355,62.012,53.223
53.223,-2.441,-159.668,57.617,36.133
57.129,-4.395,264.16,56.641,35.645
65.43,3.418,716.309,60.059,71.777
60.059,5.371,578.125,58.594,66.895
49.805,2.441,150.879,55.176,19.531
50.293,3.418,-97.168,53.711,8.789
58.594,1.953,183.594,55.176,-0.488
68.359,1.953,564.453,59.082,25.879
68.848,5.371,583.008,61.523,78.613
54.199,0.977,152.344,58.105,58.105
46.387,-3.418,-260.254,50.781,36.133
56.641,-1.465,84.473,53.223,45.898
65.43,-1.465,616.699,57.129,44.434
59.082,-3.906,623.535,52.734,66.406
51.27,-5.371,283.691,50.781,83.496
42.969,-3.418,-59.082,47.852,67.383
53.711,-1.953,62.012,46.875,32.715
68.848,0,432.617,50.293,66.406
68.848,-4.395,520.508,47.852,61.035
63.477,-8.301,152.344,46.387,-11.23
56.641,-4.395,-131.836,43.457,19.531
57.617,-5.859,-28.32,40.527,35.645
66.406,-7.324,244.629,46.875,-37.598
67.871,-4.395,496.094,45.898,-35.645
61.035,-7.812,399.902,41.992,27.832
56.641,-13.672,-170.41,50.293,5.371
57.129,-5.371,-201.172,45.41,41.016
65.43,4.395,375,42.969,27.344
77.148,1.953,538.086,54.199,-4.395
64.941,-4.883,316.895,51.758,18.555
50.781,-10.254,-107.91,42.969,-18.066
48.34,-9.766,-76.172,36.621,37.109
52.734,-10.742,249.023,36.621,43.457
58.105,-10.254,331.055,40.039,16.602
46.875,-11.719,204.59,38.574,17.578
41.016,-13.184,-170.41,35.645,5.371
46.875,-12.695,-266.602,34.668,-6.348
56.641,-13.184,314.941,35.645,46.387
61.523,-10.742,611.328,38.086,72.754
53.223,-11.23,388.672,36.621,18.066
41.992,-11.719,-62.012,39.062,-25.879
40.039,-8.301,-169.922,42.48,-10.254
54.199,-10.254,196.289,39.551,-8.301
66.895,-12.207,492.188,40.039,16.602
52.734,-10.254,471.191,42.48,83.496
40.527,-12.207,-48.34,43.945,6.836
41.504,-13.672,-194.336,38.574,-31.738
47.852,-8.301,259.766,38.086,4.395
67.383,-3.906,497.559,47.363,18.555
65.918,-4.395,494.141,47.852,41.016
47.363,-5.371,177.734,42.48,7.324
38.574,-7.324,-200.195,40.039,-24.414
51.27,-8.789,172.852,39.551,9.766
66.406,-10.254,654.785,39.062,29.297
58.594,-12.695,582.52,43.457,-24.414
43.945,-13.672,277.344,40.527,-17.09
37.598,-16.602,32.227,33.691,-3.906
40.527,-14.648,192.383,29.297,21.484
49.805,-7.812,524.414,29.785,16.113
43.457,-6.836,673.828,31.25,-21.973
29.297,-10.742,515.137,25.879,20.996
28.809,-13.184,50.781,23.438,60.547
37.109,-17.578,146.484,22.949,50.781
57.129,-16.602,654.297,32.227,-5.371
62.988,-11.719,769.531,39.062,-41.992
46.387,-11.719,585.938,39.551,-8.789
35.645,-12.207,295.898,34.18,70.801
40.527,-9.766,368.164,29.297,81.543
50.293,-10.254,651.367,29.785,7.812
51.758,-15.625,716.797,33.203,35.645
47.852,-19.043,547.852,37.109,52.734
39.062,-20.508,210.449,30.762,60.059
47.363,-19.531,203.125,29.785,47.363
61.523,-20.02,775.879,34.668,22.461
62.012,-17.578,965.82,36.133,19.043
58.594,-10.742,751.465,34.18,67.383
43.457,-11.23,378.418,28.32,130.859
40.527,-12.207,224.121,28.32,36.133
62.5,-5.859,615.723,36.133,-25.879
69.824,-3.418,897.949,35.156,-4.395
59.082,-0.488,717.285,34.668,-11.719
52.734,3.418,256.348,36.621,20.996
55.664,3.418,213.379,32.715,30.273
59.57,7.324,693.848,32.227,31.738
66.406,10.254,865.723,35.156,5.859
62.988,15.625,736.328,32.715,-0.488
51.758,16.602,343.75,31.25,28.809
50.293,10.742,104.98,31.25,19.043
52.246,14.16,544.434,26.855,-27.344
52.246,15.625,896.484,27.832,-40.039
51.27,13.672,797.363,29.785,11.719
46.387,10.742,421.875,23.438,52.734
44.434,9.277,187.5,20.996,67.871
53.223,16.113,377.93,27.832,19.531
60.547,20.996,732.91,28.809,11.719
55.664,21.973,796.875,27.832,28.809
44.434,20.508,423.34,25.879,-24.414
40.039,14.16,17.578,18.555,-26.367
42.969,9.766,314.941,19.043,-12.207
57.129,12.695,895.996,25.391,37.598
54.688,18.066,819.824,22.461,51.758
39.062,16.113,411.133,15.625,-1.953
31.738,15.137,187.988,14.16,37.598
45.898,17.578,394.531,18.066,55.176
58.105,16.602,677.246,20.996,10.254
55.176,14.648,644.531,23.926,16.113
42.969,13.184,319.824,24.902,13.184
31.738,11.719,108.887,19.531,-13.184
40.527,10.254,409.18,23.926,30.273
55.664,13.184,730.469,36.133,-1.953
60.059,17.578,754.395,33.691,-6.348
53.223,16.602,530.762,28.809,50.781
47.363,13.672,73.242,32.715,42.48
48.828,16.113,105.957,28.32,-13.672
55.664,21.484,679.688,29.297,-20.02
62.5,17.578,812.5,28.32,29.297
61.035,12.207,546.875,21.484,20.996
50.781,8.301,63.965,22.949,3.418
45.898,9.277,34.18,21.973,-28.809
55.664,12.207,646.484,22.461,-66.406
57.129,9.766,791.992,24.414,-44.922
46.387,8.789,518.555,20.996,-33.691
37.598,7.324,242.188,22.461,-20.996
38.086,3.418,250.488,20.996,15.137
51.758,4.395,571.777,19.043,0.488
47.852,2.441,720.215,20.508,-3.906
32.227,-0.977,579.102,18.555,29.785
28.32,0.488,219.727,18.066,65.918
30.273,0,159.668,20.996,85.938
44.434,5.371,428.711,24.414,45.898
42.969,7.812,618.652,31.25,22.949
27.344,4.395,680.176,33.203,80.078
18.066,3.418,368.652,30.273,96.191
22.461,3.418,-3.418,25.391,26.855
37.109,5.371,441.406,28.32,28.32
44.434,4.883,872.07,33.203,79.59
35.645,1.465,709.961,31.738,34.18
18.066,0,370.605,28.809,-9.766
18.555,5.859,209.473,25.879,12.207
34.18,5.859,560.547,24.414,79.102
38.574,1.465,828.613,30.273,90.332
29.297,5.371,621.094,31.738,24.414
8.789,9.277,372.07,29.785,22.461
1.953,5.371,147.949,28.32,43.945
20.508,3.418,429.199,29.785,82.031
34.18,3.906,957.52,36.621,91.797
25.391,0.977,866.211,31.25,61.523
14.648,0.977,516.602,23.438,61.035
13.672,2.441,289.062,22.949,76.66
18.066,1.953,388.672,25.391,26.855
31.25,4.883,690.918,27.344,-31.25
29.297,4.395,817.383,24.414,-42.969
20.996,7.324,594.238,30.273,-14.648
24.414,5.371,161.133,34.18,-14.648
17.578,-3.906,384.766,21.973,59.082
23.438,-6.348,987.793,20.02,107.422
35.645,-1.465,964.355,20.996,55.176
24.902,1.953,658.203,13.184,28.809
12.207,1.953,306.641,11.719,-23.438
10.742,1.953,523.438,19.043,48.828
23.926,0,918.457,23.926,47.363
22.949,-0.977,992.188,30.762,36.621
10.742,3.906,791.992,33.691,57.617
8.301,4.395,427.246,28.32,38.086
20.02,2.93,486.816,29.297,41.504
30.273,-0.977,855.469,27.344,54.688
22.461,-3.418,989.746,26.855,51.27
15.137,0.488,899.902,32.227,-29.785
13.184,2.441,584.961,23.926,-6.836
16.602,3.906,566.895,15.625,17.578
20.996,2.93,928.223,17.578,-24.902
16.602,-1.465,-983.887,17.578,-39.551
14.16,0.977,935.547,18.066,-41.504
14.16,7.812,574.219,19.043,-55.176
14.648,9.766,440.918,11.719,-52.246
28.809,9.766,864.746,16.602,4.883
40.527,12.207,-958.496,24.414,63.965
25.879,14.648,891.602,26.367,38.086
9.277,13.672,543.945,25.879,-24.414
20.996,14.648,556.152,23.438,1.465
32.715,9.766,935.059,22.461,37.598
31.25,6.836,-980.469,27.344,42.969
21.484,6.836,926.27,29.297,22.461
16.113,5.859,707.52,20.996,48.34
22.461,5.859,418.457,19.531,104.004
34.668,0,660.645,20.996,7.324
47.363,0.488,-961.426,20.996,21.484
36.133,3.906,943.359,20.02,46.387
15.625,1.953,625.977,16.113,-30.273
12.695,5.859,331.543,16.113,-69.824
25.879,7.812,637.207,13.184,-68.359
39.551,3.418,-979.98,12.695,1.953
29.785,0.488,973.145,15.625,59.082
19.043,-2.93,683.594,13.184,30.273
17.578,1.465,352.539,13.184,24.902
24.902,8.789,583.008,9.766,8.789
31.25,7.324,-997.07,9.766,43.457
28.809,5.859,967.773,11.719,62.988
20.996,3.418,666.992,12.207,-7.812
17.09,5.371,387.207,11.23,-43.945
19.531,6.836,590.82,8.789,-31.738
26.855,4.395,914.551,13.672,-10.742
27.832,3.906,933.594,15.137,4.395
18.555,3.418,789.551,14.16,31.738
13.672,2.93,537.598,12.695,51.27
19.531,3.418,670.898,6.348,99.609
31.25,3.906,-999.512,5.371,47.363
31.738,1.953,967.773,12.207,-16.602
23.438,0,836.426,13.672,-29.785
17.578,4.395,564.453,8.789,23.926
25.391,7.324,597.656,10.742,75.195
39.062,3.906,978.027,16.602,77.637
41.504,-0.977,-978.027,11.719,34.18
23.926,0.977,903.32,7.324,6.836
15.137,1.953,655.762,6.836,81.543
28.809,2.93,728.027,2.93,42.48
34.668,6.348,995.605,6.836,-30.273
27.832,2.93,997.559,11.719,0.488
24.414,4.883,-995.605,10.742,60.059
14.648,5.371,736.816,10.254,25.879
14.16,0,637.695,14.648,24.414
29.785,-3.418,966.309,13.672,50.781
35.156,-0.977,-992.676,10.742,31.25
29.785,3.418,-996.582,10.742,8.301
15.625,-1.953,897.461,6.348,1.953
16.113,-7.324,786.621,2.441,64.453
35.156,-1.465,958.008,9.277,42.48
44.922,7.812,-995.605,16.113,-12.207
44.922,7.324,-987.793,14.648,3.906
37.109,6.348,914.551,17.578,24.414
35.645,9.766,798.34,20.508,39.551
34.18,7.324,960.449,20.508,10.254
28.809,2.441,-992.188,25.879,41.992
21.973,7.324,999.023,26.855,53.711
11.719,6.348,958.496,27.344,1.953
12.207,6.348,747.559,25.879,19.043
27.344,11.719,837.402,19.043,-9.766
37.109,10.742,-977.051,22.461,22.949
39.551,14.16,993.164,25.879,56.152
36.133,14.16,-999.512,20.996,22.949
28.32,13.184,960.449,15.137,46.875
36.133,12.695,976.562,12.695,20.996
42.48,8.789,-992.676,17.578,-54.199
41.992,10.742,992.676,19.531,-14.16
30.762,13.184,-989.746,13.184,15.137
24.902,15.625,963.379,4.395,69.824
38.574,17.578,939.453,5.859,53.223
48.828,13.184,-997.559,19.043,20.508
41.992,9.277,999.512,15.137,35.156
32.715,10.254,-999.512,6.836,17.578
30.762,12.695,988.77,6.836,36.133
36.621,12.695,979.004,9.766,23.438
48.828,11.719,-1000,18.555,75.684
50.293,11.719,-1000,21.973,111.816
36.621,9.277,999.023,19.531,92.285
30.762,13.672,998.535,19.043,83.984
27.832,15.625,998.535,20.508,62.988
25.391,10.254,999.512,24.414,42.969
33.203,15.137,998.047,22.949,25.879
19.043,17.578,-998.047,17.578,4.883
8.789,16.113,991.211,12.695,-32.715
20.02,15.137,984.375,9.277,-10.742
26.367,16.113,-999.512,13.672,23.926
27.344,16.602,997.559,19.531,15.137
17.09,15.625,-996.582,19.531,33.203
11.719,17.578,983.887,16.602,44.922
17.578,20.02,966.309,14.16,110.84
28.32,19.043,998.047,14.16,72.266
32.715,19.531,-1000,17.578,-41.504
25.391,26.367,999.512,15.625,-44.922
19.043,24.414,996.582,10.254,-6.836
20.996,17.09,981.934,11.23,14.648
28.32,20.02,996.094,14.16,-49.805
25.879,23.438,-1000,14.16,-54.688
21.484,23.926,995.605,15.625,40.039
16.602,24.902,-987.793,13.672,30.273
9.277,22.949,900.879,8.301,21.973
21.973,20.996,904.297,14.648,40.527
39.551,18.555,-992.676,21.484,26.367
39.062,19.043,-986.328,21.973,-7.812
21.484,19.043,921.387,20.02,-13.672
8.789,17.578,856.445,17.09,-26.367
19.043,15.137,985.84,16.602,21.484
21.973,16.602,999.023,18.555,66.406
16.602,19.531,-985.84,16.602,78.613
13.184,20.508,874.023,10.254,92.285
2.93,18.555,723.145,2.93,58.594
6.348,15.625,919.922,-0.488,22.461
19.531,17.578,-987.793,-1.953,46.387
16.602,20.508,995.605,-0.977,24.902
5.859,20.02,964.355,0.488,-14.648
7.812,18.555,725.098,0.977,42.48
16.113,21.484,769.043,-5.371,32.227
20.02,19.531,-993.164,-6.836,24.902
25.879,15.137,-989.258,2.441,44.922
16.113,19.531,942.871,3.418,6.836
7.812,18.555,720.703,-2.93,-23.438
15.137,18.066,808.594,-6.836,46.387
19.531,24.902,-989.258,-4.883,60.547
18.066,25.391,-999.512,-2.93,27.832
7.812,22.461,954.59,-2.441,23.926
-3.418,21.973,694.824,-0.488,10.254
-0.977,21.484,624.512,-3.906,-28.809
13.184,20.02,930.664,2.93,-22.949
9.277,20.02,-966.309,9.277,48.828
-1.465,19.043,913.086,3.906,14.16
-5.371,19.531,653.809,8.301,-44.434
-6.836,17.09,726.562,10.254,32.715
3.418,15.625,997.559,7.324,75.684
16.113,21.973,-996.094,6.836,12.695
4.883,23.926,875.977,11.23,33.691
-5.371,23.926,658.203,9.277,63.477
-4.883,26.367,603.516,3.906,63.965
-3.906,23.438,857.422,7.324,93.75
3.418,22.949,-964.844,7.812,84.961
1.953,25.879,920.41,10.254,30.762
-10.742,20.508,647.461,10.254,-2.93
-16.113,17.09,611.328,9.277,28.809
0,20.508,890.137,16.602,27.832
13.672,24.414,-967.285,18.066,19.043
9.766,23.926,885.742,19.531,15.137
0.977,20.508,546.875,20.508,23.926
0.488,20.02,472.656,16.113,28.809
6.348,16.113,788.086,14.648,13.672
5.371,12.207,-977.539,14.16,41.504
0,12.695,910.645,18.555,58.594
-5.371,9.766,636.23,13.672,57.617
-6.836,9.766,362.305,3.906,64.453
0.977,11.23,534.668,8.301,5.371
1.465,11.23,994.141,9.766,-33.691
-5.371,11.719,910.645,4.883,23.926
-15.137,16.602,545.41,4.395,20.02
-17.578,18.555,374.512,1.953,51.758
-0.488,20.02,532.715,4.883,83.008
9.277,16.602,829.59,13.184,54.199
5.859,14.16,812.5,2.441,3.418
-1.953,22.461,521.484,-4.883,-7.812
-4.883,22.461,253.418,-7.324,37.109
4.395,20.996,407.715,-4.395,47.852
12.207,21.484,795.41,2.93,35.645
12.207,20.508,701.66,0.977,1.465
6.348,21.484,410.156,0.488,-2.441
7.324,20.996,183.105,2.93,35.645
12.207,15.625,175.293,10.254,20.508
13.672,15.137,654.785,11.719,1.465
14.648,19.043,747.559,11.719,85.938
4.395,18.066,374.023,15.137,54.688
-0.488,17.578,198.242,11.23,44.922
11.719,15.625,248.047,8.301,52.734
10.254,14.16,571.289,9.766,7.324
9.766,15.625,623.047,11.23,-10.742
7.812,16.113,344.727,7.324,-0.977
-4.883,13.672,45.41,5.371,-12.695
-4.395,16.113,26.855,6.348,-16.602
11.23,21.973,457.52,7.324,-45.898
19.531,22.949,684.082,9.766,-36.133
5.859,18.066,359.863,5.859,-10.742
-8.301,17.09,26.367,0.977,-4.883
-7.812,20.508,-77.637,4.395,-11.23
5.371,22.461,333.008,-0.977,-2.93
15.137,17.578,679.199,-6.836,34.18
9.277,12.695,363.77,-1.953,44.434
-5.859,19.531,34.18,2.441,55.176
-4.395,21.484,-8.301,4.883,47.363
20.02,21.973,265.137,9.277,20.02
22.949,22.949,468.262,11.719,6.348
7.324,21.973,225.098,11.23,44.922
-3.906,18.555,-96.68,6.836,30.273
-1.953,20.996,-106.934,0.488,-22.949
20.508,22.949,152.344,-0.488,0.488
31.738,20.02,358.398,5.859,-19.531
20.996,18.555,281.25,9.277,8.301
13.184,15.625,68.848,9.766,27.344
14.648,13.672,-201.172,7.812,-11.23
23.926,20.508,5.859,5.371,38.574
28.809,26.367,479.492,7.324,66.406
27.832,24.902,314.453,8.301,7.324
14.16,28.809,-7.812,8.301,14.648
1.465,28.32,-171.387,8.789,28.809
9.277,21.973,56.641,11.23,39.551
20.996,22.949,380.371,3.906,47.852
16.602,26.367,200.684,3.906,22.949
0.977,21.973,-63.477,-0.977,44.434
-0.977,20.996,-179.688,-11.719,62.5
7.324,21.484,-56.152,-13.672,45.898
19.043,19.043,375.977,-8.301,-9.277
18.555,16.113,421.387,-2.93,-26.855
2.93,16.113,92.773,-4.395,27.344
-9.766,18.066,-171.875,-6.836,15.137
-6.836,18.066,-16.602,-6.348,-1.953
10.742,18.555,394.531,0,62.012
12.207,20.02,359.863,-0.488,34.668
-0.977,24.414,66.406,-0.977,26.367
-13.672,26.367,-160.156,1.465,90.82
-4.883,26.367,-132.324,-0.977,77.637
17.09,24.902,255.371,4.395,27.832
18.066,22.949,490.234,0,40.527
4.395,22.949,241.211,-2.93,60.059
-0.977,22.461,-80.078,4.395,-3.418
13.184,25.391,17.578,6.348,34.18
25.879,30.273,350.098,7.324,26.367
34.18,30.273,458.008,10.742,29.785
23.926,30.762,202.637,6.836,74.707
3.906,27.344,-64.453,1.465,50.293
14.648,21.484,-5.859,6.836,58.105
33.691,23.438,251.953,10.742,24.902
41.992,28.32,420.898,10.254,-6.836
26.367,26.855,312.988,7.324,13.184
10.742,24.902,82.031,9.277,66.895
17.09,21.973,-26.367,10.742,60.059
26.367,21.973,234.863,5.859,-22.949
34.668,31.738,559.082,3.906,6.348
28.32,33.203,373.047,0.488,53.711
16.113,26.855,37.598,3.418,30.273
25.391,25.391,-77.148,11.719,-3.418
42.969,31.25,290.527,15.625,36.133
43.945,34.668,578.125,22.461,59.57
33.691,32.227,243.652,24.902,-40.527
23.926,29.297,17.09,20.508,-23.926
17.09,27.344,25.391,14.648,78.613
21.484,28.32,308.594,5.859,72.754
25.391,28.32,625,4.883,53.711
17.578,25.391,427.734,12.695,74.219
7.812,24.902,91.797,10.742,62.988
16.113,32.715,-78.613,8.301,30.273
27.832,31.738,-44.434,7.812,-40.039
25.391,25.879,428.223,9.277,-83.984
20.996,30.762,583.008,17.578,-32.227
19.043,35.645,164.551,14.16,4.395
14.648,36.621,-72.266,12.207,13.672
21.484,34.18,37.109,16.113,34.18
34.18,33.691,494.141,22.461,47.363
32.715,33.203,555.176,22.949,-8.789
14.648,33.203,193.848,13.184,31.738
14.16,31.25,-28.32,13.184,40.527
29.785,30.762,71.289,15.137,-28.32
28.809,33.203,482.422,15.137,15.137
25.879,33.691,490.723,20.996,29.297
14.648,32.715,126.953,17.578,10.742
9.766,33.203,-83.984,10.742,21.973
25.879,33.691,71.289,13.672,-17.09
34.18,33.203,373.047,22.461,-25.391
31.25,35.645,476.074,25.879,49.805
26.855,34.18,245.117,24.902,77.637
19.531,31.25,-49.316,20.508,20.02
24.414,27.832,31.25,16.602,26.367
37.109,33.691,394.043,20.02,30.273
31.738,33.691,499.512,19.531,32.227
20.996,28.809,152.832,13.184,19.043
15.625,27.344,-49.316,10.742,25.391
13.672,27.832,-115.723,9.766,40.039
26.855,34.668,202.148,9.277,24.902
29.785,30.762,543.457,14.16,17.09
12.695,28.809,166.992,14.16,28.32
2.93,33.203,-91.797,12.695,74.707
10.254,34.18,-123.535,10.254,48.828
29.297,36.133,186.035,11.23,19.043
35.645,34.668,563.477,16.602,4.395
24.902,32.715,313.965,14.16,12.207
12.207,31.738,-28.32,11.719,24.414
20.996,31.738,-107.91,10.742,-21.973
30.273,32.715,216.797,15.625,-60.547
18.066,29.785,549.316,22.949,48.34
5.371,32.227,298.828,19.043,74.219
5.859,37.109,-38.574,6.836,-10.742
13.184,34.668,-134.277,6.348,27.832
23.926,32.715,133.789,9.766,51.27
33.691,32.715,603.027,9.277,91.797
20.996,32.715,358.398,8.789,12.207
13.672,33.691,35.645,10.254,-31.738
12.207,32.715,-17.09,10.742,21.973
17.09,35.645,198.242,8.789,20.508
24.414,35.156,528.32,16.113,26.367
21.973,36.133,404.297,16.113,60.547
10.742,38.574,35.156,6.836,17.578
12.695,35.645,-137.207,4.395,-63.477
25.879,28.809,152.344,8.301,-26.855
38.574,25.879,456.055,9.277,40.039
26.855,32.715,355.957,10.742,48.34
1.953,35.156,119.629,15.137,9.277
-0.977,33.691,1.465,11.719,8.789
13.672,30.273,16.602,12.207,41.016
27.832,31.25,312.988,21.484,17.09
18.555,30.273,499.512,21.484,50.293
7.812,27.344,167.969,12.207,43.945
1.953,26.367,-66.895,13.184,35.156
6.348,25.879,52.734,11.23,30.762
22.949,33.203,393.555,15.625,6.836
26.367,36.621,437.988,19.531,54.199
8.301,32.715,-4.395,17.578,34.18
-10.254,29.785,-176.27,15.137,0.488
0,30.273,-64.941,12.695,19.531
15.625,30.762,250,20.996,34.18
12.695,34.18,479.492,13.672,1.465
