TP9,AF7,AF8,TP10,Right AUX
13.672,35.645,32.227,5.371,25.391
21.484,30.762,24.902,14.16,15.137
33.203,29.785,29.297,19.043,20.996
24.902,29.785,31.25,19.531,28.32
16.113,32.227,27.832,19.531,14.16
15.625,33.691,19.531,21.484,10.742
27.344,34.18,22.461,20.996,48.828
36.621,31.738,21.973,19.043,46.387
26.855,34.18,11.719,16.113,59.082
19.043,37.109,15.625,11.23,79.102
19.043,34.18,17.578,15.137,32.715
25.879,27.344,19.043,25.391,28.32
46.875,31.25,31.738,34.18,38.574
60.059,51.27,44.434,44.922,19.531
58.105,56.641,51.758,56.641,46.387
54.688,53.711,50.293,53.223,52.734
56.641,53.711,45.898,46.387,8.301
68.359,48.34,48.34,51.758,11.23
65.918,43.457,51.27,47.852,13.184
56.152,43.457,51.27,43.457,-30.273
46.387,36.621,47.852,40.039,-6.836
42.969,33.203,43.457,34.18,1.953
60.547,40.527,46.875,34.18,38.574
58.594,42.48,45.898,33.203,75.684
40.527,44.922,36.621,33.691,33.691
40.039,44.922,26.367,30.762,1.953
43.945,41.016,26.367,25.391,-30.273
51.27,40.039,34.668,32.715,-39.062
55.176,41.016,32.715,31.738,17.578
45.41,43.457,29.785,26.855,20.508
35.156,43.457,32.227,28.809,17.578
32.715,46.387,32.715,21.484,16.602
41.504,53.223,38.574,20.02,27.344
45.41,50.293,29.785,21.973,16.602
29.785,45.898,25.879,20.508,7.324
20.508,43.457,30.273,23.438,59.082
23.438,40.039,26.855,20.996,109.375
31.25,38.574,24.414,18.066,78.125
31.25,33.203,27.832,18.555,54.688
22.461,33.691,33.203,13.672,58.105
11.719,37.598,25.879,9.766,56.641
11.23,32.715,22.461,13.184,74.219
25.391,33.203,35.156,21.484,55.176
33.691,36.621,35.645,28.32,12.207
27.832,34.668,30.762,27.832,34.668
18.066,29.785,34.668,18.555,12.207
16.113,24.902,33.691,16.113,-21.484
25.391,24.902,32.715,21.484,30.762
36.621,26.367,27.832,20.508,28.809
33.203,27.344,27.344,20.996,19.531
23.926,26.855,36.621,22.949,-4.395
16.113,28.32,35.156,16.113,45.41
34.18,34.668,30.762,19.043,77.148
47.363,35.645,31.738,25.879,38.086
35.156,31.25,22.461,24.902,-10.254
26.855,26.367,18.555,20.02,13.672
22.461,24.902,18.066,20.996,10.742
23.926,23.438,21.973,20.02,-6.836
30.762,23.926,26.367,17.09,65.918
27.832,26.367,22.461,21.484,62.988
22.461,24.414,27.344,24.902,21.484
23.926,22.461,26.855,31.738,16.602
29.785,20.996,25.391,32.715,7.812
41.992,18.066,31.738,24.902,-1.465
41.504,18.555,34.668,20.996,-28.32
24.902,24.414,27.344,20.508,7.324
14.16,27.344,20.02,15.625,36.621
14.16,27.344,24.902,15.625,37.598
29.297,30.273,31.738,25.391,21.484
34.668,31.738,20.02,24.414,21.484
20.02,31.25,16.113,11.719,34.668
9.277,29.785,28.32,15.137,38.086
13.184,27.832,33.691,22.461,66.406
29.297,28.809,35.645,22.949,61.035
31.738,30.273,36.133,22.461,22.461
20.508,26.367,40.039,20.996,47.363
16.602,21.484,33.203,15.137,49.316
14.648,20.02,27.832,11.719,34.668
20.508,20.02,34.18,8.789,7.812
29.785,27.344,33.203,13.672,-1.953
18.555,31.25,31.738,18.555,-20.508
5.371,26.855,30.762,19.043,-5.371
0.488,24.902,32.715,18.066,52.734
10.254,26.367,34.668,16.113,19.531
20.996,20.508,30.273,19.043,8.301
8.789,18.555,30.762,16.602,8.789
5.859,24.902,40.039,17.578,14.16
11.23,25.391,34.18,17.09,33.691
22.461,28.809,25.391,12.695,12.695
36.133,29.785,20.02,18.555,30.762
26.367,29.785,19.531,23.926,5.859
15.625,32.227,31.738,19.531,28.32
12.207,29.785,32.715,15.137,67.383
17.09,25.879,31.25,22.949,75.195
29.297,25.391,35.156,31.738,112.305
29.297,29.785,33.691,33.203,74.219
23.438,31.25,28.809,31.25,77.637
21.484,32.227,26.367,31.25,73.73
28.32,34.18,25.879,25.391,6.836
43.945,31.25,29.785,23.438,6.348
41.504,31.25,35.645,31.738,20.508
28.809,30.762,37.109,35.156,2.441
21.484,31.25,37.109,32.715,6.348
22.949,32.715,36.621,24.414,94.727
39.551,30.762,32.715,23.926,128.418
41.504,27.832,27.344,18.555,78.125
28.809,28.32,24.902,14.648,68.359
24.414,26.855,12.695,17.578,12.695
24.902,23.438,7.812,18.555,10.254
40.039,23.926,11.23,21.484,44.434
49.316,24.902,10.742,20.508,51.758
32.715,25.879,14.16,18.066,55.664
18.555,22.949,13.184,19.043,8.789
21.973,21.973,12.695,17.578,-8.789
33.691,24.414,19.043,18.555,12.695
32.227,20.996,22.949,26.367,38.086
18.555,20.508,21.484,15.137,11.719
11.23,21.484,26.367,5.859,-17.578
12.695,16.602,23.926,10.742,15.625
20.996,19.043,20.996,10.742,52.246
30.273,24.902,27.344,12.695,27.344
24.414,26.367,28.809,10.254,-0.977
16.113,26.855,23.438,9.766,-14.16
14.648,26.367,20.508,10.742,-0.488
26.855,26.855,31.738,18.555,20.02
39.062,26.855,28.32,23.438,46.387
29.297,25.391,20.02,20.508,18.066
16.602,24.902,24.414,15.137,5.859
6.348,23.438,19.043,7.812,25.391
20.996,21.484,21.484,6.348,59.082
50.781,23.926,20.996,19.043,66.895
48.828,29.785,22.949,39.551,-5.371
21.484,26.367,36.133,28.32,32.227
4.883,18.555,32.227,6.836,47.852
10.254,19.043,29.297,0.977,20.02
23.926,17.578,33.691,6.348,29.785
23.926,16.602,34.18,17.578,51.27
11.719,17.09,22.949,14.16,54.199
6.836,15.137,14.16,4.883,-11.719
14.16,17.09,20.508,8.789,-33.203
22.949,15.137,28.809,11.719,38.086
23.926,16.113,32.227,14.648,53.711
17.09,22.461,29.297,17.578,-9.766
10.742,23.926,23.926,15.137,-5.371
8.789,18.555,28.32,12.207,41.504
18.555,17.09,34.18,13.184,27.344
24.414,19.531,31.738,12.207,6.836
15.625,21.484,35.156,12.207,6.348
-0.488,23.438,33.691,12.695,49.316
0.488,24.902,24.902,13.184,62.012
17.09,21.484,24.902,16.113,-9.277
23.926,19.043,24.414,18.555,-24.902
19.531,21.973,30.762,20.996,-2.93
18.555,24.902,33.691,22.461,14.648
27.832,29.297,25.879,25.879,33.203
39.062,29.785,32.227,34.18,31.25
45.41,29.297,38.574,43.457,3.418
37.109,30.762,39.551,42.969,-7.324
20.508,32.715,39.062,32.227,27.344
15.137,33.203,36.133,31.738,52.734
23.926,25.879,35.645,30.762,24.902
34.668,18.066,30.273,25.391,35.645
19.531,11.23,32.715,20.508,116.211
1.465,5.859,39.551,22.949,108.398
-4.883,3.418,32.227,15.625,-24.414
0,2.441,38.086,8.789,-41.504
14.16,4.883,43.945,13.184,6.836
5.371,12.695,38.574,13.184,8.789
-1.465,17.578,36.621,15.137,32.715
0,13.184,33.203,6.836,100.098
7.812,7.324,28.809,7.812,89.844
22.461,9.766,30.273,19.043,41.504
21.484,13.672,34.668,19.043,53.711
16.113,13.672,27.832,8.301,38.086
16.113,10.254,14.16,6.348,49.316
22.461,9.766,20.508,5.859,12.695
39.062,12.695,26.855,10.254,-26.855
35.645,13.184,19.531,18.066,-0.977
20.996,10.742,21.484,14.16,34.668
20.02,14.16,8.789,10.254,23.438
25.879,19.043,7.812,17.578,12.207
37.109,20.996,16.602,22.461,45.898
38.574,22.461,20.996,26.855,25.879
21.973,21.484,25.391,24.414,8.301
12.207,21.484,13.672,18.555,77.148
21.484,23.926,7.324,20.02,64.453
38.086,26.855,14.16,25.879,27.832
45.898,27.344,13.184,29.297,44.434
37.598,32.227,19.043,31.25,91.309
25.391,32.715,17.09,26.855,102.539
26.367,29.297,10.254,20.02,31.25
40.527,25.391,17.578,20.996,28.809
41.992,26.855,22.461,18.555,7.324
27.832,30.273,23.438,18.066,33.691
20.996,27.832,22.949,15.625,62.5
18.066,29.297,27.832,18.555,23.926
25.391,26.855,35.645,21.484,16.602
33.691,27.344,36.133,15.625,0.488
23.438,28.809,28.32,12.695,2.441
11.23,23.926,19.043,7.324,-23.926
5.371,25.879,20.508,4.883,20.508
18.555,28.32,23.438,3.906,86.914
31.25,24.902,20.02,6.348,44.434
22.949,25.879,24.414,8.301,29.297
18.066,25.879,29.297,12.695,63.477
14.648,22.949,24.902,16.602,63.965
18.066,24.902,25.879,13.184,25.391
27.344,25.879,34.668,16.113,-4.395
22.461,24.902,46.387,17.578,43.457
13.184,23.438,42.969,15.625,69.336
6.836,21.484,43.457,16.602,33.691
15.137,21.973,55.176,16.602,25.391
32.715,18.066,56.152,21.484,62.5
30.762,16.113,51.758,23.926,76.172
20.996,20.02,55.176,26.367,5.371
19.531,22.461,57.129,29.785,-20.02
28.809,23.438,58.105,24.414,51.758
41.992,22.461,62.012,29.297,45.898
39.062,21.973,58.594,35.645,1.953
20.996,23.926,49.805,30.273,46.875
11.719,23.926,35.645,22.949,88.379
13.184,25.391,29.785,17.578,51.27
28.809,34.668,30.273,23.926,15.625
35.645,44.922,31.25,24.414,7.324
20.508,46.875,41.504,22.461,43.945
12.207,44.922,34.668,20.996,3.906
13.184,42.969,27.344,16.113,10.254
27.344,44.434,30.273,19.043,32.227
32.227,47.852,33.691,26.367,-51.27
21.973,49.316,37.598,26.367,-35.156
13.184,52.246,34.668,15.137,35.645
5.859,52.734,31.738,9.766,62.012
6.836,47.363,37.598,8.301,68.359
17.578,41.504,41.992,12.207,19.531
12.695,40.527,44.922,14.648,27.832
4.883,41.504,31.25,12.207,39.062
8.301,37.598,22.461,15.137,42.969
21.484,37.598,28.809,21.484,38.574
35.645,36.621,32.227,29.297,58.105
25.879,34.18,32.227,19.043,41.992
11.23,36.621,32.227,14.648,-53.223
15.625,39.551,32.715,16.602,18.555
24.414,41.504,37.109,15.625,129.883
28.809,40.039,33.691,19.043,53.223
22.949,34.668,29.785,19.043,5.371
14.16,27.832,31.738,22.461,41.504
8.789,23.926,21.973,17.578,42.969
17.09,22.461,25.391,10.742,88.867
32.715,23.926,18.555,9.277,58.105
24.414,30.273,17.09,9.766,-6.348
15.137,30.762,34.18,15.625,17.09
12.207,26.367,27.832,14.648,1.953
18.066,27.832,22.949,10.742,-26.855
31.25,29.297,29.297,18.066,27.344
26.367,27.344,26.367,22.949,41.016
14.16,23.926,18.066,19.531,-21.484
8.789,22.461,17.09,19.531,-25.391
12.695,24.414,22.949,15.137,-6.836
24.414,25.391,31.25,9.277,3.906
22.949,24.902,37.598,11.23,0
13.184,26.855,31.25,7.324,18.555
9.277,25.391,23.926,5.859,25.391
14.16,23.438,29.785,5.371,-18.555
28.809,20.508,31.738,12.207,6.348
28.809,19.043,28.809,18.555,-6.836
18.066,22.461,30.762,16.113,-1.953
13.184,24.414,26.855,7.812,37.598
11.23,21.973,21.484,1.953,52.734
27.344,26.367,25.879,8.301,75.195
36.133,29.297,26.367,12.207,32.715
20.02,26.855,31.25,16.602,30.762
12.695,25.879,27.832,12.695,35.645
20.508,28.809,22.461,7.324,40.039
35.156,29.785,22.949,11.23,34.668
39.551,28.32,26.367,15.137,20.02
30.273,29.785,25.879,14.16,51.27
22.461,26.855,16.602,11.719,81.055
18.066,24.902,20.02,4.395,42.48
30.273,26.367,29.297,3.418,44.434
44.922,26.367,36.133,13.672,28.32
39.062,27.832,41.016,17.09,15.137
29.785,30.273,34.18,13.672,7.324
22.461,32.715,25.879,12.207,-30.762
27.344,40.039,30.762,16.113,41.016
41.016,42.969,27.832,21.484,72.266
38.086,42.969,24.902,20.996,69.824
25.879,41.016,27.344,20.508,38.086
16.113,37.598,24.414,19.043,-20.02
23.438,40.527,21.484,18.555,5.371
42.969,37.109,26.855,18.555,25.879
34.668,33.203,36.133,17.09,18.066
16.602,37.598,32.227,17.578,33.691
18.066,36.621,20.02,14.16,34.18
27.344,32.227,15.625,18.555,-38.086
36.133,26.855,24.902,23.438,20.508
24.902,22.461,26.367,11.23,7.812
5.859,26.855,27.832,5.371,-35.645
5.859,30.273,24.414,10.742,-45.41
13.184,28.32,21.973,15.137,-48.34
26.367,33.203,23.438,20.02,19.043
34.668,41.504,31.738,21.484,3.906
24.414,40.039,35.645,18.066,0
15.137,33.203,22.949,14.16,8.301
24.414,32.715,18.066,15.137,44.922
33.691,32.227,19.531,26.855,14.648
33.691,31.738,20.996,30.762,-20.508
33.203,33.203,20.996,30.273,20.996
23.926,34.18,27.344,30.273,26.367
23.438,32.227,35.156,25.391,12.207
39.062,27.832,30.273,30.762,32.227
41.504,27.344,29.297,35.645,67.871
33.691,31.25,32.715,32.715,24.414
21.484,30.273,27.344,34.18,-24.414
13.672,26.855,23.438,28.32,-0.488
22.949,25.391,18.555,25.879,33.691
30.273,25.879,15.137,29.785,45.41
20.508,27.344,20.996,24.414,52.246
14.648,24.902,19.043,21.484,43.945
14.648,20.996,17.578,17.578,30.273
20.508,20.508,27.832,16.602,70.801
30.762,21.973,33.203,12.207,87.402
25.879,23.438,41.504,9.277,53.223
13.672,18.555,39.062,11.719,46.387
4.395,20.996,29.297,8.301,41.504
12.695,21.973,23.438,3.906,21.973
21.484,17.09,20.996,7.324,48.34
11.23,19.531,30.273,15.625,63.965
3.906,20.508,33.203,11.719,70.801
1.465,22.461,20.02,3.906,29.785
6.348,24.414,15.625,3.418,0
21.973,21.484,15.625,2.93,-27.832
15.137,18.555,17.578,0,-40.527
5.371,20.508,25.391,9.766,16.113
5.859,20.508,16.602,13.184,64.941
10.254,16.602,12.207,5.859,66.406
25.391,15.137,20.508,6.836,26.855
20.996,14.16,22.949,7.812,14.648
-1.465,13.672,17.578,-0.488,-12.695
-2.441,16.602,10.742,-8.301,-11.23
5.371,17.09,13.672,-10.254,29.297
17.578,19.531,20.02,-7.812,27.832
24.902,23.926,24.414,4.883,-4.395
12.207,27.832,29.297,10.254,42.969
2.93,29.785,25.879,2.93,52.734
1.953,30.273,23.438,1.953,5.859
14.16,31.25,29.297,7.812,69.336
26.855,31.25,38.574,11.23,65.43
15.625,31.738,45.898,14.16,20.996
5.859,31.738,43.945,17.578,81.543
13.672,27.832,46.875,19.043,101.562
23.438,23.926,41.992,20.508,33.203
32.715,27.832,37.598,23.438,8.301
21.973,28.809,41.504,18.066,5.371
9.766,23.438,30.762,13.184,-20.996
10.254,24.902,30.762,13.184,0.977
17.578,25.879,42.969,12.207,-3.906
24.902,23.438,40.527,6.836,-11.23
18.555,23.926,35.156,8.789,16.113
14.16,25.391,35.156,13.672,19.043
14.16,23.438,28.809,14.16,-4.395
16.602,21.973,20.02,15.137,-7.324
35.156,31.25,13.672,24.902,31.25
45.41,35.645,22.949,41.992,33.203
17.578,27.344,33.203,30.273,17.09
-1.953,21.484,32.715,10.742,-18.066
4.395,14.16,37.109,11.719,-20.996
8.789,10.254,44.434,8.301,43.945
0.488,7.812,53.711,3.418,85.938
-15.625,5.859,58.594,6.348,81.055
-21.973,5.371,51.27,2.441,46.387
-20.508,0.977,55.664,-4.395,16.602
-8.301,-5.859,56.152,-0.977,11.719
-3.418,-5.859,48.828,2.441,21.973
-20.996,-5.371,51.27,-5.371,42.969
-23.438,-2.441,50.293,-8.301,50.293
-15.137,3.418,48.828,-4.883,55.664
0.977,3.418,55.664,4.883,15.625
4.395,3.906,60.059,12.207,22.949
-10.254,4.883,49.805,5.371,60.059
-15.137,5.859,40.039,-0.488,4.395
-7.812,11.719,41.992,-1.953,57.617
6.348,14.648,36.133,8.789,38.574
8.789,13.672,35.156,22.461,0
0.977,15.625,38.086,20.02,68.359
0.488,14.16,34.668,17.09,48.828
3.906,13.184,37.109,18.066,39.062
16.113,14.16,29.785,23.926,27.832
20.996,17.09,27.832,22.461,33.691
12.695,20.508,30.273,22.949,50.293
6.348,19.531,18.066,23.926,7.812
3.906,24.414,17.578,17.578,40.527
18.555,30.273,20.02,17.578,57.129
31.25,29.785,22.949,25.879,21.973
24.414,26.367,21.973,28.32,36.133
21.484,22.949,13.672,24.414,23.926
19.043,20.996,12.695,16.602,65.43
26.855,18.555,12.695,12.207,117.188
38.574,18.066,18.555,21.484,49.805
27.344,13.672,24.414,25.391,-8.789
18.555,11.23,25.391,21.973,-0.488
14.648,16.113,32.715,22.461,42.48
23.926,15.137,29.785,25.879,76.172
35.156,12.695,24.902,29.785,43.457
18.555,17.09,32.227,22.949,14.16
4.883,17.09,39.062,18.555,80.078
5.859,13.184,28.32,17.09,42.969
17.09,12.695,21.973,15.137,15.137
24.902,9.766,26.855,15.625,34.668
24.902,7.812,24.902,17.578,49.316
16.602,4.883,21.973,13.672,33.691
4.395,0,20.996,8.301,32.715
15.137,5.859,17.578,8.301,40.039
38.574,9.766,17.578,9.766,-2.93
32.715,11.719,20.02,14.648,-18.066
17.578,16.602,23.438,19.531,26.855
15.625,19.043,22.949,19.531,68.359
21.973,19.043,27.344,12.695,39.062
31.25,21.484,30.762,11.719,16.113
34.18,26.855,32.715,20.508,-20.02
24.902,28.809,36.133,25.391,-26.855
15.137,22.949,23.926,20.508,2.93
17.578,20.02,23.438,16.602,-5.371
33.203,22.461,34.18,16.602,-2.93
41.992,24.902,38.086,24.902,17.09
29.785,26.855,32.715,29.297,39.062
16.113,27.344,20.508,22.949,30.762
13.184,24.902,19.531,18.555,29.785
28.32,23.438,19.043,18.066,27.344
34.18,22.949,20.996,18.555,43.457
24.414,21.484,28.32,19.531,49.316
16.602,20.508,24.902,16.602,31.25
11.719,20.996,22.461,8.789,-30.273
22.461,21.973,24.414,9.766,-62.988
34.18,22.461,35.645,19.531,-11.719
19.531,20.508,37.109,16.113,-17.578
3.418,20.996,29.297,15.137,-22.949
3.418,23.926,30.762,14.648,33.691
18.555,22.461,25.391,12.695,39.062
23.926,19.043,27.832,23.926,36.621
14.648,20.508,40.039,20.02,60.059
6.348,20.996,34.668,14.648,76.66
-0.488,18.555,24.414,12.207,6.348
11.719,22.461,23.438,11.719,-5.371
28.809,25.879,28.809,19.043,46.387
20.508,24.902,37.109,20.996,41.504
9.277,23.438,29.297,17.09,-25.391
1.465,21.973,22.461,9.277,-8.301
5.859,20.996,24.414,1.953,47.363
18.555,15.137,31.738,7.812,40.527
22.949,14.16,34.18,7.812,39.062
13.184,16.602,28.809,8.301,31.25
-3.906,17.09,29.297,3.906,102.539
-1.465,15.137,30.762,-1.953,68.359
19.043,13.672,24.902,0.977,-16.113
19.043,15.625,28.32,-2.441,12.695
1.465,13.672,35.156,-0.488,37.598
-6.348,17.578,25.879,-3.418,46.875
0,19.531,25.391,-5.859,35.156
16.602,19.043,34.668,-4.395,10.254
18.066,21.484,38.574,-1.953,7.324
2.441,20.02,39.551,-2.441,6.348
-7.812,22.461,43.945,-10.742,9.277
-12.207,21.484,51.27,-15.625,55.664
3.906,20.02,42.48,-12.207,20.508
20.996,25.391,47.852,-6.836,-5.859
-5.859,23.438,60.547,-21.484,11.719
-29.785,20.02,54.688,-41.992,-0.488
-30.273,24.414,56.641,-47.852,37.109
-30.762,21.484,56.152,-47.852,79.59
-30.273,20.508,58.105,-46.875,43.457
-45.41,23.438,59.57,-56.152,46.387
-61.035,24.414,51.27,-62.5,47.852
-72.266,23.438,54.199,-68.848,21.484
-75.195,21.484,63.965,-74.707,37.109
-66.406,19.043,69.336,-68.848,22.461
-73.242,19.531,71.777,-79.59,31.738
-92.285,16.113,67.383,-93.75,21.484
-94.238,12.695,63.477,-92.773,16.113
-80.078,19.531,57.129,-96.191,45.41
-70.801,20.996,61.523,-96.191,27.344
-73.73,16.113,73.73,-85.938,22.949
-76.66,14.648,68.848,-70.801,62.5
-83.984,16.113,60.059,-77.148,72.266
-74.707,19.043,48.828,-86.426,31.738
-54.688,21.484,46.387,-73.73,-15.625
-56.641,22.461,53.223,-63.965,-19.043
-61.523,28.32,51.758,-65.918,31.25
-63.965,29.297,52.734,-70.312,18.066
-51.27,26.855,50.293,-62.012,39.551
-26.855,26.855,39.551,-56.641,24.902
-30.273,24.902,41.992,-52.734,-10.254
-41.016,22.949,44.434,-42.969,61.035
-46.875,17.578,36.133,-42.48,67.871
-36.621,15.625,29.785,-39.062,27.832
-11.23,17.578,33.203,-32.715,3.418
-4.395,20.02,33.691,-22.461,-20.508
-11.23,17.578,27.344,-15.137,35.645
-10.742,15.625,27.344,-12.207,24.902
0.977,20.996,23.926,-3.418,30.273
16.113,21.973,17.578,4.883,61.035
29.785,22.461,25.391,13.184,40.527
27.344,19.531,24.414,19.531,56.152
26.367,16.113,17.578,19.531,55.176
33.203,24.414,28.809,27.344,46.875
49.316,29.297,21.484,38.574,37.109
62.988,28.809,18.066,42.969,26.367
57.617,30.762,15.137,49.805,9.277
49.805,28.809,7.324,48.34,52.246
50.293,30.273,6.348,48.34,67.383
61.523,32.227,1.465,56.152,30.762
73.73,30.762,6.348,60.547,57.617
69.336,27.344,10.742,62.988,58.105
60.059,22.461,7.324,62.988,21.484
53.223,22.461,1.953,54.199,0.488
58.594,27.344,-2.441,49.805,11.23
67.871,30.762,0,58.594,21.973
62.012,29.297,5.371,59.082,81.543
59.082,27.344,-2.93,56.152,91.797
54.688,24.902,-7.324,53.223,29.785
61.035,20.508,-7.324,51.758,26.855
72.754,17.09,-6.836,58.594,40.039
66.895,18.555,-5.859,54.688,-1.953
62.012,24.902,-8.789,55.176,67.871
51.758,27.344,-10.254,55.176,56.152
54.199,28.32,-6.836,54.199,24.414
75.684,34.668,-3.418,64.453,61.035
73.73,37.598,4.883,66.406,38.574
60.547,33.203,12.207,66.406,39.062
60.059,34.18,10.742,69.336,34.18
69.824,36.133,7.324,74.219,22.949
83.984,32.227,14.16,76.66,29.785
77.637,26.855,23.926,72.754,-8.301
64.453,23.926,16.602,68.848,3.418
56.641,24.414,3.906,65.918,49.316
59.57,23.438,10.254,68.359,78.125
74.219,22.949,23.926,70.801,86.426
80.078,22.949,27.344,73.73,80.566
64.453,20.02,17.578,69.824,62.012
49.316,19.531,5.859,60.547,64.941
49.805,22.949,6.348,55.176,33.203
62.5,25.391,9.766,49.316,30.762
69.824,26.367,18.555,50.781,24.414
58.594,26.367,22.461,53.711,-7.812
49.805,26.855,17.09,45.41,30.273
50.293,25.879,19.043,45.41,27.344
64.941,25.879,20.996,44.922,-10.742
68.359,26.855,29.785,40.039,5.371
58.594,22.949,31.25,42.969,19.043
46.387,21.973,26.367,41.992,30.762
38.086,21.973,25.391,34.18,12.695
51.27,19.531,22.461,35.645,38.574
62.988,20.996,29.785,43.945,66.895
49.805,24.902,31.25,47.852,37.109
33.691,24.902,26.855,41.992,29.785
30.273,20.996,21.484,35.156,74.707
40.527,20.508,23.438,37.109,83.496
49.316,22.949,36.621,42.969,14.648
39.551,21.973,33.691,44.922,-11.719
28.32,25.391,28.32,39.551,33.691
29.297,24.902,33.691,40.039,63.477
34.668,16.602,31.738,39.062,-3.906
51.758,17.578,32.715,41.504,-28.32
51.27,17.09,39.551,37.109,-5.371
31.25,15.137,33.691,32.227,3.906
23.926,17.09,24.902,31.25,8.789
30.273,17.09,26.855,29.785,-24.414
41.016,17.578,41.016,31.25,6.348
35.156,19.531,40.527,30.762,-14.16
33.691,20.996,27.832,31.25,6.836
28.32,24.414,18.066,25.391,44.434
22.461,24.902,17.578,22.461,1.953
38.574,20.508,24.414,29.785,-27.832
41.992,19.043,36.133,34.668,66.895
29.785,16.113,38.086,37.598,83.008
19.531,14.648,26.855,35.645,-1.465
24.902,17.578,25.391,32.715,39.551
40.039,18.555,35.645,31.25,17.09
41.016,23.438,41.016,34.668,-4.883
30.762,28.809,39.551,36.621,17.09
25.391,25.879,39.551,31.25,-17.578
29.785,22.461,31.25,27.832,-28.32
46.875,24.902,28.32,28.32,18.555
50.293,25.879,34.18,32.227,35.645
33.691,20.996,39.062,32.227,56.152
29.297,20.508,34.668,22.461,12.695
22.461,20.02,26.367,18.066,0.977
26.367,21.484,28.32,21.973,66.895
35.156,26.367,35.645,21.973,12.695
24.902,30.762,37.109,20.508,0
10.254,33.691,34.18,15.625,4.395
3.418,29.297,34.18,11.719,14.648
16.113,27.832,30.273,15.625,46.387
30.762,35.645,37.109,24.414,-3.906
21.973,40.527,44.434,24.414,30.762
17.578,39.062,37.598,19.043,84.473
17.09,35.645,28.809,19.531,30.762
18.066,33.691,32.715,14.16,46.387
30.762,34.18,39.062,10.742,38.574
26.367,36.133,39.062,14.648,4.395
13.672,36.133,30.762,9.766,34.18
13.672,32.715,15.625,8.789,37.109
20.508,29.297,13.672,14.648,-12.695
28.32,29.785,19.043,3.906,20.996
23.438,32.715,30.762,-4.395,41.016
13.672,31.25,31.25,6.348,-17.09
11.719,31.25,22.461,9.277,3.418
19.531,35.645,19.043,4.883,25.391
34.18,35.156,25.879,10.254,26.367
36.621,34.668,33.203,18.555,29.297
20.508,34.18,31.25,17.578,40.527
18.555,29.785,24.414,12.207,50.293
30.762,30.762,13.184,16.602,37.109
43.457,36.133,14.16,16.113,69.824
32.715,34.668,25.391,14.16,9.277
13.184,32.227,24.414,17.09,-14.16
12.207,35.645,22.461,17.09,66.406
10.254,34.668,21.484,20.508,40.039
17.09,29.785,23.438,25.391,61.523
29.785,26.367,32.715,25.391,64.453
17.578,29.297,36.621,24.902,23.438
2.441,35.156,31.738,29.785,14.648
4.395,38.086,26.855,28.32,7.324
24.414,34.18,34.668,28.32,55.176
37.598,33.691,46.875,35.645,70.801
28.809,38.574,46.875,37.109,90.82
19.531,35.645,40.039,39.551,31.25
19.531,33.203,37.109,32.227,-7.812
32.227,36.133,28.32,25.879,29.297
35.645,36.621,33.203,31.738,-12.695
20.996,34.18,37.109,29.297,-37.598
20.508,37.109,34.668,25.879,63.965
20.996,37.598,42.48,22.461,112.793
30.273,34.18,35.645,19.043,92.285
47.852,38.086,34.668,25.879,79.59
35.645,42.969,42.48,30.762,53.223
25.879,41.992,37.109,25.391,-6.836
22.461,41.992,29.297,18.555,-17.09
21.973,40.527,30.273,16.113,33.203
37.598,39.062,35.156,19.531,-28.809
25.879,35.156,39.062,20.996,-24.414
9.766,32.227,41.016,20.02,45.898
6.348,30.273,37.598,21.484,83.496
9.766,25.879,37.109,14.16,18.066
17.578,19.531,43.945,6.836,-45.41
11.719,15.625,52.246,8.789,-16.602
-0.977,22.461,43.457,13.184,18.555
-9.277,27.832,35.156,17.09,-32.715
-0.488,29.297,32.227,11.719,-75.195
14.648,33.203,36.133,12.207,-56.641
8.789,31.738,44.434,20.508,-39.062
5.859,27.832,40.527,22.949,-12.695
5.859,22.949,30.273,16.602,28.809
4.883,21.484,23.926,19.531,21.973
24.414,25.879,30.273,31.25,0
34.668,26.855,34.668,27.344,16.602
29.785,28.809,29.785,24.902,62.988
22.461,31.738,25.879,26.855,65.918
26.855,30.273,21.973,18.555,41.016
45.898,32.227,16.602,18.066,23.926
49.316,31.738,23.438,24.414,22.461
37.598,27.832,29.297,20.508,98.145
30.273,25.879,22.949,17.09,73.242
32.227,28.809,17.09,16.602,3.906
45.41,31.738,20.02,13.184,-7.324
47.852,28.32,21.484,20.996,-12.207
37.598,27.344,14.16,26.367,48.34
28.32,30.762,15.625,20.508,113.281
27.832,32.715,15.137,12.695,35.156
42.48,31.25,15.625,13.672,51.758
48.34,30.762,26.367,15.625,114.746
29.785,30.762,27.832,13.184,83.008
17.578,28.32,25.391,11.23,75.195
13.672,27.832,30.762,9.766,40.527
20.996,29.785,27.832,6.836,27.344
32.227,29.297,27.832,12.207,74.707
19.531,26.855,27.832,20.02,49.805
15.137,24.902,24.414,20.508,42.48
15.625,23.438,22.461,15.137,6.348
17.09,27.832,20.508,12.207,-57.129
24.902,28.32,27.832,13.184,-37.109
20.02,27.832,29.785,17.578,32.715
15.137,29.297,19.043,14.648,25.879
10.254,26.367,20.02,7.324,3.418
14.16,25.391,15.625,5.859,44.434
28.809,25.391,17.09,7.812,63.965
27.344,23.926,23.926,10.742,10.254
18.555,23.438,22.461,13.184,12.207
10.742,21.973,19.043,10.742,92.285
17.578,23.438,14.648,11.719,97.656
32.227,24.414,19.531,8.301,79.102
30.762,23.926,24.902,3.906,55.664
19.531,26.367,22.461,8.301,45.41
8.301,25.879,23.438,-0.977,33.691
8.301,22.461,24.902,-4.395,80.078
27.344,20.508,25.391,4.883,107.422
34.668,20.508,28.809,13.184,83.984
21.484,21.484,30.273,21.973,68.359
13.184,25.391,31.738,22.461,52.246
15.137,28.32,33.691,19.531,25.391
31.25,28.809,32.227,20.508,43.457
41.992,27.344,31.738,20.508,23.926
33.203,28.32,29.785,21.973,-35.156
21.973,26.855,24.902,18.555,-21.484
16.602,20.02,24.902,13.184,-29.297
31.25,20.508,20.996,13.672,-30.273
49.316,26.855,25.879,25.391,-16.602
36.133,29.785,30.762,29.297,-23.438
12.695,27.344,27.344,8.301,-37.109
10.742,24.902,24.902,0.488,-28.32
24.902,22.949,28.32,5.859,31.25
32.715,27.344,35.645,9.277,52.246
17.09,28.809,38.086,11.719,13.672
12.207,28.32,38.574,8.301,-45.41
12.695,30.273,29.297,13.184,-43.945
16.113,26.855,21.484,16.602,6.836
29.297,24.902,28.32,15.625,53.711
25.879,27.344,30.762,19.531,42.48
17.578,25.879,27.832,20.996,-11.23
10.254,24.414,28.32,19.531,-14.16
18.066,28.32,26.367,15.625,13.672
33.203,29.297,29.297,20.508,47.852
28.32,25.391,31.738,17.578,51.758
17.578,28.809,22.949,15.625,6.348
15.137,29.785,24.902,21.484,51.758
19.531,24.902,20.02,12.695,47.852
28.32,26.367,16.113,10.742,29.785
22.949,26.855,25.391,16.602,-0.977
13.184,25.391,29.785,15.137,-56.641
10.254,27.832,27.344,8.301,22.949
11.719,27.832,22.949,12.695,30.762
23.926,26.855,23.926,21.973,12.207
29.297,28.32,27.832,15.625,19.043
17.09,25.879,32.227,18.555,40.039
8.789,23.926,27.832,26.367,22.949
9.766,22.461,20.996,22.949,28.32
23.438,22.949,30.273,22.949,57.617
32.227,25.879,28.809,24.414,20.02
19.043,25.391,19.531,21.973,26.855
12.207,30.273,21.484,24.414,2.93
17.578,31.25,23.926,24.414,-5.859
38.574,26.855,29.785,22.949,80.566
47.852,30.762,34.18,28.809,105.957
28.32,30.273,25.391,28.32,84.473
18.066,26.367,20.02,21.484,27.832
15.137,26.367,16.602,11.719,-41.992
26.367,23.926,21.484,15.137,33.203
33.691,24.414,27.832,23.926,83.496
17.578,22.949,22.461,22.949,58.594
5.859,17.578,18.066,18.066,9.766
3.418,18.066,20.508,12.695,-10.742
16.113,19.531,23.438,15.137,21.484
29.297,17.578,37.109,18.066,-10.742
23.438,20.02,47.852,16.602,30.762
17.578,23.926,38.574,17.578,33.203
13.672,26.855,34.18,13.672,-8.301
18.555,29.297,34.668,9.277,48.34
27.832,28.809,27.344,10.254,45.898
22.949,29.785,21.484,13.184,25.879
16.113,31.738,27.832,17.09,44.922
12.695,31.25,25.391,15.625,23.438
20.02,29.297,22.461,14.16,3.418
34.18,31.738,38.086,17.09,34.668
29.297,34.18,41.504,19.531,0.488
20.996,31.25,33.203,17.578,-46.875
20.02,31.25,31.25,17.09,2.441
25.391,28.32,17.578,17.09,27.832
33.203,26.367,15.137,17.578,0.977
32.715,30.273,29.297,21.973,6.836
16.602,29.297,27.832,28.32,33.691
10.742,25.879,24.414,23.926,12.207
19.043,24.902,20.508,20.02,2.93
33.203,26.855,19.531,22.949,16.113
40.527,33.203,24.414,25.391,4.395
30.273,35.645,27.832,29.297,48.34
16.602,32.227,29.297,27.832,50.293
14.648,33.691,29.297,22.949,7.324
26.855,37.109,32.715,22.949,74.219
26.855,37.109,34.18,25.391,85.938
18.066,35.645,31.25,17.578,32.227
12.207,36.133,29.297,16.602,41.016
9.277,35.156,23.926,20.02,46.875
24.414,31.25,24.902,14.16,68.359
34.18,28.809,43.457,14.16,58.105
26.367,25.391,43.945,23.438,38.086
20.508,21.973,28.32,22.949,36.621
20.02,23.438,32.227,18.066,61.523
31.738,21.484,32.227,18.066,53.223
41.504,19.043,37.598,23.438,31.738
32.715,20.508,42.48,26.367,25.391
20.508,19.531,30.762,22.949,38.086
15.625,16.113,24.414,12.695,65.918
26.367,18.066,26.367,8.789,50.293
33.691,22.949,39.062,22.461,34.668
21.484,25.391,41.016,21.973,22.949
16.113,27.832,35.645,19.043,26.367
17.578,33.691,29.297,13.184,42.48
21.484,33.203,20.508,9.277,-8.301
31.25,24.902,24.902,17.578,8.789
25.879,23.926,26.855,14.16,67.383
14.16,24.414,23.438,10.254,51.27
5.859,21.973,25.391,10.742,98.145
12.695,20.02,15.625,13.672,138.184
27.344,19.043,11.719,9.766,70.312
23.438,18.555,20.996,12.207,55.664
17.578,16.602,19.531,15.625,79.59
11.719,13.184,17.578,11.23,58.105
18.066,11.719,8.789,6.348,33.203
35.645,14.648,13.184,8.301,-3.906
33.203,15.625,34.668,13.672,24.414
23.438,16.602,29.297,11.719,40.039
20.508,19.043,20.996,6.348,12.695
17.578,24.902,11.719,1.465,24.414
27.832,28.32,9.277,-0.977,42.48
29.297,23.926,16.602,6.348,29.297
12.207,19.531,14.648,9.277,-4.395
11.23,20.508,24.902,7.324,47.852
15.625,18.066,20.02,1.953,13.672
20.508,17.578,17.09,0,-51.758
27.344,22.949,36.133,6.836,-25.391
17.578,25.391,41.016,1.953,-0.977
8.789,26.855,35.645,-3.418,41.992
6.836,23.926,22.949,-5.371,58.105
13.184,19.043,18.066,-4.395,4.395
31.738,21.484,28.809,4.883,-0.488
32.227,25.391,28.32,15.625,30.762
23.926,26.367,25.879,19.043,44.434
20.996,27.344,18.555,13.184,43.457
37.109,28.32,17.09,16.602,29.785
45.41,24.902,27.832,21.973,-24.414
30.273,26.855,29.785,20.996,-4.883
19.043,34.18,21.484,19.531,-1.953
11.719,37.109,24.902,16.113,0.977
21.484,35.156,39.062,18.555,-18.066
31.738,29.297,45.898,26.855,-48.828
25.879,28.32,52.246,37.109,55.664
20.02,30.762,49.316,35.645,39.062
14.648,25.391,39.551,21.484,-10.254
22.461,25.879,36.133,20.508,59.57
32.715,27.832,37.598,26.855,93.262
31.738,26.367,27.832,31.738,23.438
22.461,31.25,24.902,29.785,25.879
11.23,30.762,31.738,21.973,16.602
20.996,30.273,20.508,20.02,16.113
35.156,33.203,20.508,28.32,22.461
28.809,29.785,26.855,34.18,8.789
27.832,29.785,21.973,34.668,27.832
23.926,30.762,21.973,32.715,-36.133
20.508,24.902,21.973,27.832,-46.387
34.668,22.949,33.203,25.391,97.656
29.297,29.785,38.574,23.438,105.469
20.508,33.203,25.391,22.461,-30.762
23.926,33.203,21.973,22.949,-11.719
23.926,31.25,18.555,23.438,13.672
39.551,26.855,21.484,26.367,-3.418
46.875,29.785,27.832,34.668,-18.066
36.621,34.18,25.879,37.598,0.488
34.668,33.203,24.414,34.668,28.32
37.109,29.785,17.578,31.738,-8.789
48.34,27.344,24.414,34.18,-2.441
57.617,29.297,41.016,42.48,29.297
49.805,30.273,39.551,46.875,58.594
36.133,30.762,33.203,44.922,79.102
29.297,31.25,23.926,35.645,23.926
37.109,27.832,23.926,33.203,25.391
44.922,27.344,33.691,37.109,-40.527
35.645,25.879,34.668,36.133,-57.617
21.973,21.484,34.18,33.203,35.645
16.602,20.02,25.391,28.809,63.477
28.32,21.484,22.461,23.926,51.758
39.062,22.461,39.551,31.25,16.113
32.227,24.414,52.246,33.691,19.043
26.855,23.438,48.828,25.391,33.203
21.973,18.555,41.992,23.926,70.801
26.855,16.602,29.297,20.996,41.992
40.527,15.625,30.762,20.508,5.371
40.527,16.113,35.645,26.367,-6.836
29.785,18.555,30.762,25.879,7.324
23.926,19.043,31.25,20.02,65.43
31.738,23.926,33.203,20.02,80.078
44.922,30.273,35.156,31.25,18.555
37.598,31.25,32.715,33.691,-25.391
27.832,30.762,25.391,30.762,0.488
26.855,29.297,23.438,30.273,50.781
31.25,28.32,22.461,24.414,29.297
47.852,30.273,24.414,24.902,-12.207
45.898,29.785,25.879,31.738,22.461
30.273,29.785,25.391,28.809,43.457
26.367,30.273,19.043,23.438,95.703
32.227,29.785,10.254,21.973,56.152
42.48,31.25,21.484,19.531,-32.715
33.691,29.297,37.109,24.414,28.32
20.508,30.273,35.156,21.484,30.273
14.16,30.273,28.809,8.301,31.738
13.184,27.344,15.625,5.371,26.855
26.855,28.809,17.09,9.766,1.953
33.203,29.785,29.785,10.742,55.176
19.043,27.832,21.973,9.277,25.879
5.371,24.414,16.113,3.418,52.734
4.395,25.879,8.789,-0.977,71.777
23.926,28.809,13.184,3.418,32.227
35.156,26.367,29.297,5.859,57.129
20.02,21.484,24.414,7.812,23.438
8.789,20.508,21.484,6.836,-37.109
5.859,21.973,17.09,4.395,4.883
18.555,22.461,9.766,4.883,13.184
31.738,21.484,16.602,5.859,-1.953
22.461,21.484,13.184,3.906,24.414
13.672,25.391,5.859,4.395,8.301
13.184,28.809,8.789,2.441,11.719
20.508,30.273,7.812,5.859,-16.113
31.738,30.273,22.949,13.184,-2.441
23.438,26.367,38.574,11.23,43.945
14.16,25.879,32.715,11.23,44.922
5.371,27.344,27.344,10.742,46.875
13.184,28.32,33.691,11.719,44.434
38.086,30.273,38.086,20.996,-7.324
26.855,31.25,36.133,21.973,-21.484
14.16,28.32,38.574,20.508,10.742
13.184,21.973,38.574,15.137,23.926
17.09,21.484,32.227,11.719,-5.371
37.109,23.438,31.738,16.602,3.906
40.039,25.391,34.668,17.09,62.012
24.414,24.902,29.785,12.695,90.82
13.184,20.508,21.973,9.766,47.852
18.555,14.16,18.555,11.23,30.273
33.691,16.113,20.996,11.719,82.52
29.297,22.949,28.32,11.719,62.988
15.137,26.367,32.227,13.672,57.617
9.277,26.367,26.367,12.207,57.129
4.395,20.02,15.137,4.395,-11.719
18.555,18.555,22.461,-0.488,-27.344
30.273,18.066,35.156,2.441,4.883
19.531,15.625,31.25,4.883,19.531
9.766,12.207,30.273,8.789,21.973
12.695,13.184,27.344,6.836,3.906
25.391,18.555,32.227,9.277,50.293
29.297,17.09,42.48,16.113,43.945
19.043,16.602,36.133,13.184,18.555
10.742,20.02,25.391,11.23,-19.043
15.137,19.043,25.879,11.23,-0.977
36.621,17.09,29.785,10.742,41.016
44.922,20.02,24.414,16.113,3.906
29.297,19.531,23.438,18.066,34.668
19.531,19.531,27.832,13.672,37.598
16.602,18.066,13.184,9.277,82.031
23.438,10.742,9.766,5.371,79.59
27.344,9.766,29.785,8.789,33.203
16.113,12.695,31.738,13.184,33.203
8.301,14.16,32.227,9.766,34.18
9.277,13.672,26.855,10.254,54.688
18.066,11.719,20.996,15.137,7.812
29.785,12.207,26.855,20.02,18.066
22.461,12.207,29.785,17.09,79.59
15.625,15.625,27.344,13.672,118.652
10.254,19.043,18.555,12.207,66.895
16.602,20.02,14.16,14.16,2.93
33.691,20.02,27.344,20.02,-10.254
26.855,21.973,41.016,20.508,-10.742
18.066,20.508,40.527,15.137,3.418
8.789,18.066,34.668,12.695,11.719
7.812,22.949,30.273,6.348,13.184
25.391,27.832,32.227,3.906,65.43
15.137,26.855,26.855,8.301,70.312
1.465,26.855,21.973,12.207,16.113
2.441,29.785,20.02,11.23,44.922
7.812,29.785,15.625,10.254,43.945
23.926,24.414,22.461,12.207,-8.789
28.32,20.02,25.391,13.672,22.461
12.695,20.508,17.578,16.113,58.594
3.906,18.066,13.184,11.719,19.531
7.324,16.113,5.859,1.465,47.363
15.137,16.602,9.766,-3.906,74.707
21.484,20.996,19.043,4.883,23.926
13.672,27.832,16.602,7.812,76.172
6.348,31.738,13.184,3.418,67.871
10.254,30.273,10.742,4.395,18.555
19.531,31.25,18.066,9.766,67.871
28.32,33.203,25.879,15.625,66.895
21.484,33.203,29.785,15.625,59.57
11.23,31.738,22.949,14.16,19.043
6.836,30.273,13.672,12.695,39.062
17.09,29.785,24.902,12.207,63.477
31.25,28.32,37.109,14.648,41.016
25.879,26.855,35.156,15.625,-14.16
16.602,25.391,33.203,11.23,-43.457
7.324,22.461,28.809,4.883,-14.16
17.578,24.902,35.156,17.09,5.371
30.762,23.926,42.969,24.414,-7.324
15.625,19.531,35.645,16.602,24.414
10.254,19.043,31.25,14.16,40.039
12.207,19.531,25.391,12.695,27.344
22.461,19.043,18.555,15.625,-5.859
37.598,24.414,31.738,24.902,-11.23
31.738,30.273,33.203,29.785,-0.488
24.902,32.715,27.832,24.902,-15.625
18.066,30.762,30.762,24.414,14.16
23.926,33.691,23.926,23.438,-48.34
33.691,38.574,35.645,25.879,-78.613
29.297,35.645,42.48,30.273,19.531
24.414,34.18,34.668,25.391,51.758
20.508,35.156,33.691,29.297,41.504
29.297,38.574,32.715,26.855,30.762
39.062,37.109,36.621,23.926,28.809
37.598,32.715,38.574,30.762,82.52
30.762,34.18,36.133,32.715,68.848
21.484,32.715,37.598,27.832,62.5
21.973,28.32,31.738,21.973,2.93
39.551,25.879,35.156,23.926,-43.457
40.527,28.809,48.34,25.879,21.484
26.367,30.273,44.434,23.926,40.039
20.508,28.809,39.062,28.809,51.27
20.996,31.25,37.598,33.203,70.801
30.273,34.18,39.551,30.273,27.344
35.156,32.715,40.039,32.715,7.324
31.738,31.25,38.086,32.227,6.348
24.902,30.273,29.785,21.973,-0.488
20.996,23.438,20.996,11.23,-38.574
31.738,20.508,29.297,11.23,-2.93
39.551,25.391,30.762,15.625,58.594
24.902,26.855,24.902,14.648,19.043
12.695,20.508,26.855,11.719,-10.742
18.555,18.066,21.484,10.254,29.785
37.109,23.926,23.926,9.277,64.453
46.387,29.297,42.48,8.301,52.734
38.086,30.273,41.016,9.766,-13.184
28.32,29.785,32.227,10.254,1.953
23.926,29.785,20.996,7.812,46.875
34.18,35.645,21.484,6.836,13.672
45.41,45.898,34.668,6.836,31.25
28.809,44.434,30.273,15.137,1.953
11.719,37.598,24.902,22.949,-52.734
10.742,35.645,25.879,5.371,14.648
25.879,37.109,28.32,-0.977,81.543
33.203,40.527,34.668,18.555,46.387
27.344,38.574,26.855,17.09,0.488
14.648,35.645,18.555,8.789,41.016
5.371,31.25,17.09,9.277,40.527
20.996,32.227,18.066,17.09,42.48
33.203,33.691,27.344,20.02,27.832
20.508,29.297,25.391,17.578,12.695
9.766,28.32,21.973,18.066,38.574
5.859,24.414,22.461,8.789,21.484
13.184,22.461,11.719,8.789,5.371
31.25,25.879,11.719,14.16,-8.301
33.691,24.902,22.949,21.484,9.277
13.184,23.926,24.414,24.414,42.969
14.16,29.297,19.531,19.531,77.637
21.484,34.668,22.949,16.602,17.09
31.738,33.203,29.297,20.508,-49.805
35.645,32.227,31.25,27.832,-58.594
33.203,35.156,31.25,30.273,-25.391
31.738,30.273,36.133,28.32,43.945
17.578,21.484,41.016,20.02,23.438
28.809,15.625,54.688,18.555,48.34
39.551,12.207,56.152,26.367,79.102
31.25,14.648,47.852,32.715,72.266
20.02,16.113,41.992,25.391,57.129
22.461,11.719,32.227,21.484,14.648
38.574,13.184,38.086,14.16,61.035
43.457,19.043,47.852,20.508,69.336
25.391,18.555,41.504,22.461,-16.113
22.949,16.602,39.062,21.484,-27.344
29.297,17.09,34.668,13.672,-0.488
31.25,19.531,36.621,14.648,-7.812
35.645,19.043,49.316,26.855,10.254
27.832,17.578,48.828,20.508,29.297
22.461,20.508,46.387,37.109,89.355
16.602,17.09,47.852,33.203,92.773
33.691,14.16,49.316,23.438,29.297
38.086,12.207,54.199,28.809,41.504
27.344,11.23,52.246,33.203,33.203
27.832,15.625,44.922,28.32,63.965
14.16,15.137,37.109,20.996,90.82
13.672,13.672,26.367,26.367,44.922
24.414,12.695,32.227,27.344,16.113
27.344,10.742,41.992,26.367,-11.23
28.809,11.719,35.645,22.461,0.977
20.508,10.742,22.461,20.996,37.109
21.484,17.578,20.02,17.578,20.02
37.598,22.461,29.297,20.996,-25.391
32.227,17.578,31.738,30.273,0
22.461,18.066,34.668,23.926,18.066
17.578,16.113,40.039,29.785,49.805
19.043,16.113,27.832,27.832,96.191
35.645,20.02,24.414,27.344,40.527
33.691,17.09,30.273,35.156,27.832
24.902,18.066,22.949,20.02,47.363
20.508,22.461,20.508,22.949,-3.418
16.113,20.02,20.02,23.438,4.395
29.297,20.508,30.762,22.949,68.848
31.25,24.902,44.922,40.039,97.656
27.832,26.367,38.574,34.668,90.332
17.578,26.855,27.344,21.484,71.777
0.977,28.32,20.508,13.184,0
22.949,29.297,29.785,13.184,39.551
32.227,28.809,38.086,20.996,39.551
16.113,27.832,40.527,32.715,60.547
9.766,22.461,40.527,28.809,134.277
5.371,22.949,29.297,16.602,21.973
17.09,33.203,29.785,19.043,-41.016
32.227,34.668,45.898,9.277,43.457
21.973,30.273,46.387,9.277,30.273
9.766,29.297,37.109,17.578,-29.297
6.836,25.391,30.273,16.113,7.812
27.832,24.414,28.809,17.09,31.738
49.316,26.855,28.32,33.691,41.016
28.32,29.785,21.484,39.551,31.738
18.066,35.156,18.066,34.18,46.387
11.23,32.715,21.973,32.715,46.875
15.137,26.367,25.391,25.879,13.184
32.715,28.32,33.691,28.32,9.766
31.25,29.297,38.086,31.738,13.184
21.484,28.32,40.527,30.273,23.438
15.625,28.809,31.738,23.926,24.414
16.602,30.762,24.902,18.066,14.648
31.738,32.227,41.992,21.484,-19.043
27.832,33.203,48.828,20.996,-16.602
21.973,32.715,44.922,17.578,101.562
27.344,27.344,34.668,18.066,80.566
12.207,22.461,29.785,17.09,26.367
24.902,22.949,35.156,20.02,64.453
39.062,22.949,32.715,24.414,26.855
21.484,20.996,34.668,18.555,-16.602
2.441,22.461,39.062,9.766,-10.742
3.906,23.438,32.715,10.742,-8.789
29.785,24.902,37.598,10.742,15.137
37.598,16.113,46.875,13.184,92.773
22.461,10.742,42.969,18.066,64.941
2.93,12.695,40.039,13.184,27.832
-0.488,12.207,35.156,1.465,38.086
11.23,16.602,36.621,2.441,44.434
20.508,16.113,39.062,14.648,8.301
14.648,13.184,30.273,14.648,3.906
12.695,13.184,21.484,0.977,48.34
11.23,14.648,13.672,0,23.926
19.531,24.902,23.926,7.812,-4.883
29.297,32.715,38.574,21.973,-0.977
16.113,30.273,34.668,13.672,13.184
9.766,24.414,29.297,3.418,19.043
6.836,22.461,27.832,7.324,17.09
6.836,21.973,29.297,9.277,56.152
17.09,15.625,32.715,14.648,5.859
10.742,13.184,35.645,17.09,5.859
6.836,17.09,30.273,24.414,88.867
15.137,22.461,22.461,20.508,36.621
20.508,21.484,17.578,18.555,1.953
28.32,21.973,23.926,20.02,33.691
28.32,22.461,28.32,14.16,30.762
9.277,18.555,27.344,16.113,75.684
8.789,15.137,22.949,14.16,98.633
23.926,15.137,24.414,12.207,37.598
22.949,13.184,37.598,27.832,3.418
8.301,11.719,36.133,28.809,-13.672
-2.93,13.672,27.344,18.555,-7.324
5.859,15.137,13.672,17.578,16.113
13.184,16.602,17.09,4.395,47.363
10.742,17.578,24.902,4.883,57.129
20.996,17.09,11.719,17.09,52.246
19.531,17.578,10.254,14.648,28.32
-1.953,15.137,20.02,27.832,70.801
2.441,13.672,19.043,17.578,100.098
38.086,20.02,23.926,-0.977,22.949
28.809,19.043,31.25,13.184,-10.254
-0.488,12.695,33.203,14.16,17.09
-2.93,16.113,28.809,7.812,36.621
4.395,20.508,20.996,2.93,23.926
9.277,19.043,23.926,8.789,34.18
9.277,18.555,24.414,6.836,52.734
10.742,14.16,23.438,12.695,44.434
9.766,16.113,20.02,12.695,36.133
12.695,20.02,20.02,-2.441,-1.465
21.484,17.578,30.273,1.953,-12.207
20.02,14.16,34.668,11.23,15.625
14.648,16.602,30.273,8.789,15.137
13.672,20.508,22.949,5.371,-36.133
1.953,18.066,12.695,-1.953,4.883
5.371,19.043,19.043,-4.883,82.52
21.484,20.508,30.273,6.836,25.879
14.648,16.113,26.855,12.207,9.277
14.16,13.672,23.926,7.324,-4.883
13.184,19.043,20.508,3.418,-36.133
17.09,21.973,25.391,11.23,67.383
30.273,21.484,31.738,12.695,32.715
25.879,22.461,38.574,12.207,-5.859
13.672,20.996,38.086,18.066,26.367
9.766,21.484,21.973,3.906,6.348
20.996,20.996,26.367,-3.418,-7.324
37.109,20.508,34.668,0.488,1.465
27.832,20.996,30.273,5.371,21.484
15.137,19.043,30.762,16.602,25.391
18.066,19.531,21.973,17.09,27.832
18.066,16.113,22.461,7.324,27.344
34.668,15.137,32.715,7.812,9.277
39.062,15.137,29.785,17.09,9.766
23.926,15.625,29.297,20.02,36.621
7.812,15.137,16.113,14.16,79.59
11.23,18.066,10.742,5.371,56.152
26.855,21.973,29.297,15.625,8.789
20.508,21.484,34.18,13.184,22.461
17.578,26.855,27.344,5.371,1.953
17.09,30.762,21.484,12.695,37.109
7.324,27.832,20.996,6.348,27.344
18.555,24.414,31.25,9.766,-34.668
27.344,24.902,34.668,19.043,-29.785
19.531,25.391,21.973,10.254,15.625
2.93,23.926,14.648,5.859,60.059
-0.977,22.949,8.301,-3.906,19.531
19.043,25.391,13.672,3.906,6.348
33.203,25.879,21.973,10.742,64.453
18.555,20.996,14.648,3.906,8.789
-2.93,18.555,8.301,7.812,17.578
-2.441,15.625,7.324,5.859,47.363
23.926,16.113,12.207,1.465,11.23
35.156,17.578,12.695,7.324,13.184
15.137,14.648,10.254,11.23,-27.344
12.695,18.555,8.301,8.301,31.25
18.555,20.996,4.395,4.883,101.562
20.02,20.02,8.301,7.324,46.387
29.785,21.484,22.461,7.324,36.133
30.273,24.902,26.855,5.371,86.914
22.949,26.855,20.508,0,87.891
14.648,26.367,11.719,-0.977,82.031
19.531,23.438,19.043,11.23,28.809
41.016,22.949,28.809,17.578,-5.371
38.574,27.344,25.391,13.672,90.332
25.879,28.809,19.531,14.16,81.055
16.602,27.832,17.09,1.465,10.254
28.32,28.809,21.973,-6.836,57.617
40.527,25.391,23.926,9.766,71.289
28.32,22.461,20.508,14.16,6.836
18.066,24.902,18.066,14.16,-23.438
5.859,20.508,11.719,23.926,-1.953
16.113,20.508,14.648,21.973,-0.488
37.109,25.879,27.832,24.902,-22.461
35.156,24.414,28.32,36.621,5.371
24.902,21.484,27.344,39.551,38.574
20.02,22.949,19.043,30.762,14.648
30.273,28.32,15.137,27.344,29.297
47.852,27.344,31.738,27.344,74.707
50.293,28.32,37.109,28.32,25.879
37.109,29.785,37.109,36.133,-1.953
22.461,27.832,29.785,31.738,-7.324
18.066,26.855,18.555,15.137,-38.086
37.109,25.391,24.414,17.578,-5.371
51.27,25.391,23.438,30.273,40.039
43.945,26.855,22.949,34.668,14.16
28.32,23.438,16.602,32.227,-19.531
29.785,20.508,4.883,30.762,-7.324
47.363,21.973,14.648,31.738,11.23
49.316,22.949,20.02,29.297,18.066
34.668,24.902,19.531,31.738,27.344
27.832,28.32,19.531,31.738,30.762
22.949,28.809,14.648,26.367,8.301
33.691,24.902,17.578,29.785,-5.371
43.457,21.973,23.438,32.715,12.207
33.691,20.508,22.461,34.668,23.926
28.32,17.09,14.16,36.621,2.441
26.855,17.578,3.418,28.32,-39.062
35.156,20.02,11.719,28.32,36.133
43.457,19.531,13.184,34.18,81.543
40.527,26.855,5.859,33.691,36.621
32.715,30.762,3.906,37.109,36.621
25.391,27.832,-4.395,36.621,85.938
37.598,31.25,-4.395,34.18,80.566
46.387,32.227,7.324,37.109,35.156
34.18,31.25,10.254,37.598,55.176
23.926,35.645,12.695,30.273,20.508
16.113,38.574,10.254,17.09,20.02
20.02,37.109,11.719,10.254,27.832
35.156,38.574,32.715,20.02,82.52
30.273,40.039,28.809,25.391,69.824
20.02,36.621,23.926,23.926,30.762
18.066,35.645,25.879,28.32,55.664
17.09,31.25,26.855,23.926,-2.93
33.691,27.832,29.297,26.367,-85.449
35.645,33.203,22.949,22.461,-8.789
21.973,34.668,15.137,16.113,55.664
12.207,33.691,1.465,8.789,41.992
20.996,36.133,1.465,-2.93,60.547
35.156,32.715,20.02,1.953,53.711
26.367,29.297,16.602,7.812,42.969
18.555,30.762,7.324,11.23,21.973
19.043,27.832,-4.883,-1.465,41.016
24.414,25.391,-2.441,-1.465,9.277
32.227,25.879,15.137,11.23,-6.348
33.203,27.344,14.16,19.043,11.23
21.973,28.809,9.766,15.137,0
13.672,30.273,7.812,4.883,52.246
17.578,26.855,7.812,6.348,71.289
25.879,20.508,8.789,6.836,44.434
29.785,20.996,16.113,6.348,24.414
24.414,28.809,22.949,9.277,-2.93
17.578,34.668,21.484,3.418,-4.395
18.066,34.668,15.137,-3.418,37.109
28.32,27.832,20.508,-0.488,57.129
33.203,23.926,29.785,2.93,63.965
26.367,28.32,28.32,11.23,46.875
21.973,34.18,24.414,5.859,62.012
17.578,38.086,24.414,-6.836,59.57
24.902,38.574,34.18,-1.465,11.23
33.203,34.668,45.41,10.742,6.836
22.949,29.785,47.363,9.766,25.879
11.23,26.367,40.039,7.324,23.438
8.301,22.949,27.344,0,-16.113
23.926,28.32,34.18,0,18.555
40.039,33.691,36.621,8.789,28.32
32.227,34.18,23.926,7.812,2.441
16.113,33.691,19.531,9.277,41.016
15.137,30.273,19.043,10.254,59.57
25.391,33.691,24.414,8.301,71.289
41.016,38.086,26.855,14.16,52.246
42.969,34.18,32.227,17.09,41.016
24.414,34.18,30.762,12.695,2.441
16.113,38.574,20.02,8.301,-18.555
22.949,37.598,18.066,13.184,26.855
39.062,34.18,25.391,20.996,56.641
37.109,32.227,30.273,19.043,62.012
22.949,33.203,22.949,17.09,38.086
13.672,32.227,11.719,11.23,20.02
16.602,30.273,10.254,9.766,41.992
34.668,30.762,14.16,20.02,65.43
39.062,25.391,10.254,26.855,-2.441
25.391,28.809,6.348,26.855,-75.684
12.695,34.18,8.789,18.555,-11.719
20.508,31.738,16.113,13.184,29.297
34.18,28.809,18.555,20.996,5.371
34.668,25.879,12.695,26.855,98.145
30.273,24.414,9.277,28.809,106.445
18.555,23.926,8.789,28.32,67.383
17.578,23.438,11.23,22.461,62.5
39.551,28.32,22.461,26.855,11.23
52.734,31.25,32.227,29.297,23.438
47.852,31.25,35.156,29.785,24.902
39.062,29.785,33.203,38.574,43.945
32.715,28.32,12.695,30.273,92.773
43.945,32.227,16.602,23.926,70.312
50.293,31.25,35.645,31.25,53.711
37.109,26.367,32.227,33.691,27.832
35.645,24.414,28.809,30.273,18.066
29.785,19.043,23.438,23.926,51.758
31.738,20.996,22.949,20.508,46.387
41.016,25.879,32.715,19.531,22.949
27.344,27.832,31.25,20.02,4.883
14.648,27.832,28.32,20.996,52.734
16.602,29.297,22.949,18.555,74.219
30.762,30.762,15.137,17.578,40.527
40.527,27.832,11.23,20.508,70.801
33.203,29.297,16.113,24.902,17.578
27.832,31.738,24.902,25.879,23.438
31.738,32.227,19.531,21.973,41.992
37.598,36.621,19.531,19.531,24.902
49.316,40.039,25.391,22.461,-42.969
44.434,41.016,27.832,26.367,-46.387
29.785,39.551,24.414,23.926,21.484
23.926,36.133,15.625,16.113,4.883
25.879,41.992,17.09,11.719,-50.293
39.551,42.969,32.227,12.695,-3.418
43.457,40.527,38.086,17.578,15.137
33.691,39.062,33.691,20.02,5.371
20.02,35.156,29.297,17.578,68.359
14.648,31.738,28.32,8.301,48.34
27.832,31.738,38.574,10.742,17.09
28.32,29.297,38.574,20.508,49.805
19.043,30.762,34.18,20.508,39.551
14.648,34.668,21.484,11.719,27.344
16.113,37.109,14.16,7.324,8.789
26.855,40.039,22.949,12.695,62.988
28.32,38.086,26.855,22.461,68.848
20.02,39.062,29.297,21.973,-5.859
17.578,41.504,26.855,20.02,-10.254
23.438,41.992,28.809,21.484,21.973
33.691,41.504,38.086,23.926,27.832
38.086,40.527,37.109,25.391,-2.441
32.227,42.48,40.527,28.32,1.953
22.461,44.922,38.574,23.438,49.805
16.602,42.48,29.785,14.16,-1.953
26.855,38.086,37.109,14.16,-0.488
42.969,36.621,40.039,23.438,36.621
35.645,38.086,37.598,28.809,21.973
23.438,41.504,26.855,20.996,40.527
22.461,42.969,16.602,12.695,69.336
34.18,41.504,21.973,16.602,29.297
42.48,43.457,20.02,22.461,-34.18
34.18,43.457,20.02,22.949,-3.418
22.461,41.016,23.926,22.949,49.316
20.02,40.527,21.484,16.113,42.48
28.32,38.574,22.461,6.348,94.727
37.598,33.691,32.227,15.625,90.82
29.785,33.203,40.527,20.02,33.691
11.23,27.344,33.203,13.184,24.414
8.789,20.996,22.949,10.254,35.156
20.508,23.926,23.438,10.254,27.344
39.062,22.461,23.438,20.508,-9.277
35.156,19.531,29.785,22.949,-58.594
17.578,21.484,33.203,14.648,-41.504
10.742,14.16,22.461,12.695,89.355
23.926,13.184,19.043,16.602,66.406
52.734,20.996,29.297,24.902,32.715
49.316,19.043,34.18,26.855,56.152
30.273,17.09,34.18,21.484,16.602
24.414,17.578,24.414,26.855,46.387
27.832,19.043,21.973,26.367,26.367
44.434,22.461,33.691,25.879,2.93
46.387,22.949,38.574,30.762,29.297
37.109,24.902,34.668,32.715,17.578
29.785,28.32,26.367,27.832,-18.066
27.832,23.926,26.855,17.09,-30.273
41.992,20.508,31.25,18.555,7.812
47.363,23.926,26.855,28.809,-6.348
34.18,28.809,26.367,30.762,-28.32
17.578,24.902,26.855,21.484,11.719
9.766,19.531,26.855,13.672,-7.812
20.996,22.949,28.32,16.113,30.762
32.227,22.949,21.973,15.137,-5.859
24.902,19.531,26.855,18.066,-54.688
12.207,17.578,21.973,18.066,-8.301
5.371,15.625,15.625,3.418,21.484
12.695,16.602,37.598,8.301,11.23
20.996,17.578,39.551,16.602,-5.371
14.648,16.113,32.715,13.672,4.883
4.883,16.113,31.25,13.672,2.93
3.418,21.973,23.438,14.648,59.57
17.09,27.832,21.973,16.113,96.191
30.273,33.203,26.855,20.02,82.52
25.879,33.691,25.879,19.043,34.18
17.09,33.691,22.949,25.879,70.801
18.066,33.203,13.672,21.973,114.746
26.367,30.273,14.16,13.672,29.785
37.598,29.297,20.996,20.508,-15.625
36.133,30.273,17.578,27.344,-6.836
25.391,30.273,21.973,24.902,66.406
7.812,24.414,21.973,19.043,62.988
10.254,19.043,28.32,19.043,24.414
33.203,23.926,35.156,20.508,27.832
33.691,27.832,33.203,24.902,-44.434
18.066,26.855,38.086,21.973,5.859
15.625,24.414,26.855,15.625,78.125
31.25,22.461,21.484,18.555,42.48
40.527,21.973,38.574,25.879,65.43
43.945,20.996,42.48,31.25,8.789
39.062,18.555,40.527,25.879,-32.227
22.461,20.508,34.668,15.625,53.223
20.508,22.949,27.344,7.812,36.621
31.738,20.508,28.809,20.02,-44.922
32.227,17.09,35.645,35.156,-22.949
25.391,18.555,35.645,29.785,47.363
20.996,19.531,25.391,24.414,27.832
17.578,20.996,22.949,19.531,23.926
26.855,25.391,38.574,17.578,57.129
38.086,25.391,46.875,25.391,83.984
34.18,24.414,42.969,33.203,59.57
26.367,23.438,34.18,28.809,43.457
24.902,24.902,29.785,24.414,51.27
36.133,30.273,36.133,27.344,22.461
40.039,28.32,40.039,31.25,6.348
33.203,28.32,38.086,33.691,6.836
28.809,35.156,29.785,29.785,54.199
20.996,34.668,23.926,20.508,27.344
30.762,29.785,30.273,21.484,18.555
44.922,27.832,32.715,30.762,33.691
31.738,26.855,33.691,32.715,-13.672
21.484,23.926,30.762,30.762,25.391
20.996,23.438,22.461,18.555,36.621
26.855,27.832,29.297,16.113,-16.602
32.227,26.367,35.645,17.578,17.09
25.391,20.996,30.273,18.066,31.25
13.672,19.531,20.02,21.973,0.977
8.301,23.926,9.766,14.16,39.551
15.625,26.367,8.301,12.207,80.078
30.762,21.484,7.324,16.113,118.652
21.973,18.555,-1.465,16.113,46.875
14.648,23.926,-11.23,16.113,-40.527
15.625,26.367,-2.441,15.625,-8.789
12.207,30.273,7.812,8.301,7.812
25.879,36.621,3.906,7.812,25.391
25.879,34.668,10.254,15.137,75.195
18.066,29.297,12.207,16.113,21.484
10.254,28.32,3.418,9.766,12.695
12.207,32.715,11.719,12.207,52.734
35.645,35.645,20.02,17.578,-1.465
38.574,37.109,20.02,17.578,35.645
25.879,35.645,21.973,18.066,114.746
18.066,33.203,12.207,12.207,62.012
14.16,33.691,13.672,5.371,20.996
26.855,34.18,26.367,6.348,77.637
38.086,31.738,25.391,20.02,81.055
24.902,28.809,25.391,25.391,21.973
15.137,27.832,25.879,21.484,17.09
20.02,32.715,18.555,16.602,8.789
30.273,39.062,22.461,18.066,-11.23
40.039,38.086,31.738,21.973,3.418
29.297,38.086,29.785,19.531,48.34
20.02,35.645,22.949,17.09,24.902
13.184,32.227,15.137,11.23,-25.391
21.484,30.762,18.066,16.113,36.133
37.598,32.227,29.297,26.855,71.289
26.367,33.691,32.715,25.879,20.508
20.02,29.297,23.926,23.926,15.625
20.02,29.785,17.09,14.16,13.672
24.414,29.785,26.855,14.16,-4.395
34.668,28.32,30.273,22.949,1.953
29.297,30.762,29.785,20.508,31.738
20.508,28.32,26.367,17.578,78.613
15.625,28.809,15.625,18.066,28.32
21.973,27.832,27.832,21.973,62.5
31.25,28.32,36.621,25.879,88.867
25.391,28.809,34.18,28.32,62.012
18.066,23.926,35.645,30.762,65.43
14.16,17.09,28.32,24.902,23.438
17.09,16.113,31.25,15.137,42.48
31.25,16.113,39.062,20.996,86.914
30.273,18.066,36.133,26.367,36.621
13.184,18.555,38.086,23.438,22.461
8.789,15.137,32.715,17.578,98.633
13.672,17.578,28.32,14.16,86.426
25.391,20.508,33.203,22.949,-2.441
36.133,20.508,29.297,33.691,20.508
22.461,21.484,27.344,28.32,39.551
10.742,26.367,24.902,15.625,29.785
13.672,30.762,20.508,10.254,19.531
23.438,32.227,28.809,12.695,14.16
30.273,33.203,34.668,21.973,-35.156
23.438,31.738,38.574,20.508,-40.039
21.484,31.25,28.32,18.066,-1.465
24.414,33.203,18.066,19.531,30.762
34.18,31.25,19.043,14.648,14.16
38.574,28.809,24.902,18.066,-9.277
28.32,31.25,31.738,23.926,11.719
17.09,27.344,32.715,23.438,48.828
20.508,21.484,28.32,20.02,7.812
33.203,23.926,28.809,17.578,-55.176
38.574,31.25,32.715,19.043,-34.668
32.715,34.18,42.48,24.902,29.297
24.902,31.738,34.668,19.531,63.965
22.461,33.691,19.531,11.23,29.785
36.133,36.133,24.902,19.043,54.688
44.922,30.762,29.297,23.926,61.035
28.809,32.227,26.367,22.461,28.809
20.996,32.227,24.902,20.996,-0.488
18.066,25.391,24.902,12.207,20.996
25.879,27.344,32.227,9.277,30.762
37.109,29.785,29.785,18.066,39.062
31.25,30.273,26.855,18.066,75.684
14.648,26.855,32.227,9.277,100.098
4.883,24.902,36.133,5.859,53.711
12.207,23.438,39.062,5.371,10.254
29.785,22.461,37.598,10.254,-18.555
30.273,24.414,36.133,10.254,-9.277
18.066,24.414,31.25,9.766,13.184
16.113,22.461,20.508,10.254,-9.277
19.043,22.461,28.809,4.883,-6.348
30.273,24.902,42.48,8.301,-11.23
35.156,28.809,39.062,12.207,14.16
28.809,28.32,26.367,8.789,-12.695
23.926,24.414,15.625,5.859,-31.25
21.484,21.973,14.648,4.395,-23.438
27.832,22.461,25.391,9.766,-35.645
30.762,20.996,35.156,20.02,17.578
25.879,20.02,31.25,21.973,64.453
19.531,17.578,21.973,14.648,62.5
18.066,20.02,22.461,11.23,19.531
31.738,20.996,34.668,13.672,5.371
38.574,19.043,41.016,16.602,47.852
24.902,22.461,32.227,11.719,66.406
18.555,23.926,27.344,12.695,40.039
23.438,24.414,34.668,13.672,44.434
29.297,20.996,42.969,5.859,91.309
31.25,17.09,42.969,8.301,76.66
18.555,14.648,37.598,12.695,-9.277
3.906,13.184,30.762,4.883,17.578
1.953,22.461,36.621,-5.371,43.945
18.066,23.438,44.434,2.93,-1.953
30.762,20.996,40.527,18.066,-4.395
24.902,28.809,39.062,21.484,9.766
18.066,28.809,34.18,20.508,-4.883
19.043,25.879,33.203,18.066,9.277
23.926,23.926,45.41,18.555,62.5
30.273,20.508,45.41,20.508,71.289
24.414,22.949,44.434,20.02,-7.324
17.09,24.414,43.945,15.137,-23.438
20.02,16.602,35.156,3.906,4.395
33.203,15.137,33.691,8.789,29.297
46.875,19.531,41.504,21.973,98.145
36.133,19.043,45.41,19.043,74.219
16.113,20.508,38.086,14.16,28.32
16.602,21.973,36.133,12.695,26.855
30.273,27.344,43.457,16.602,24.414
40.527,28.32,47.852,24.414,7.324
36.133,26.367,48.34,25.879,20.02
29.785,30.762,37.109,18.066,-8.789
22.461,26.367,30.273,10.254,-46.387
25.879,19.043,38.574,15.137,90.82
44.434,19.531,36.133,29.297,123.535
42.969,22.461,33.203,30.762,-3.418
32.227,20.508,35.156,28.32,-20.02
25.391,17.578,23.438,23.926,44.434
22.949,17.09,24.902,17.09,61.035
36.133,18.066,35.156,19.531,11.23
41.016,21.973,33.691,23.926,-3.906
23.926,22.949,31.738,18.066,-9.277
19.043,23.926,23.926,10.254,-13.672
17.578,22.461,18.066,4.395,17.578
20.508,21.973,19.043,8.789,16.113
23.438,20.02,23.926,14.16,-2.441
12.207,16.602,28.32,11.719,17.578
6.348,20.508,16.602,8.789,56.152
4.883,25.879,5.371,1.465,56.641
15.137,28.32,16.602,3.418,62.988
33.203,25.879,24.902,16.602,28.32
27.344,21.484,24.902,20.996,16.602
11.23,20.02,29.297,14.648,43.945
0.488,23.438,31.738,5.371,1.465
12.695,27.344,24.414,8.301,-15.137
28.32,27.832,24.414,16.113,11.719
23.926,26.855,26.855,16.602,-10.742
21.973,22.461,22.461,17.578,62.5
14.16,21.973,19.531,10.742,86.914
23.926,25.391,30.273,12.207,23.438
34.18,20.508,36.621,20.508,43.457
27.344,19.043,31.738,20.996,56.152
16.602,19.531,21.973,17.578,58.105
6.348,18.555,21.973,12.695,88.867
14.16,18.555,27.344,13.184,107.91
36.133,16.602,24.902,17.578,79.102
34.668,15.625,19.043,21.484,53.711
14.648,17.09,16.113,24.414,49.805
3.418,18.066,14.648,20.508,66.895
5.859,16.602,18.555,11.23,46.875
22.461,16.602,18.555,14.648,28.32
22.461,20.996,20.508,22.949,11.23
9.766,20.996,20.996,18.555,2.441
8.301,16.602,15.137,11.719,-3.418
14.648,16.602,20.02,11.23,0.977
28.32,20.508,22.461,19.531,17.578
37.598,24.414,24.414,28.809,73.242
25.879,20.996,16.602,24.414,33.203
18.066,21.484,8.301,23.926,-11.719
24.902,24.414,6.836,26.367,50.293
32.715,23.438,5.859,24.414,41.504
30.762,27.832,7.812,29.297,23.926
14.648,27.344,7.812,30.762,-6.348
7.812,24.902,3.418,22.949,-2.441
13.672,28.809,1.465,18.555,23.438
33.203,34.18,10.742,26.367,20.996
44.434,36.621,17.09,31.738,-6.836
32.227,38.574,18.066,29.785,20.508
19.531,39.062,17.09,27.832,96.68
18.555,36.621,14.648,22.461,66.895
28.32,35.645,17.09,22.949,52.246
38.574,34.18,20.508,23.926,23.438
32.227,34.668,26.367,22.949,12.207
27.344,36.621,26.855,21.484,5.859
27.344,39.062,23.926,14.16,-4.395
39.062,41.992,21.484,8.789,-8.301
52.734,42.48,21.484,18.066,-2.441
41.992,43.457,20.996,22.949,0.977
28.32,41.504,15.137,12.207,42.969
21.484,40.039,19.531,8.789,8.301
26.855,41.016,23.438,9.766,-33.691
37.109,40.039,19.531,15.137,46.387
33.203,40.039,19.043,23.926,44.922
21.973,35.645,11.719,25.391,6.348
10.742,32.715,10.742,16.113,34.18
16.113,32.227,16.113,15.137,60.547
30.273,27.832,18.066,20.996,91.309
25.391,26.367,23.926,18.555,42.969
6.348,23.926,22.949,14.16,64.453
2.441,22.461,16.113,10.254,64.941
14.16,24.414,21.973,8.789,64.453
24.414,25.879,24.902,12.207,66.895
21.973,25.391,24.902,20.02,33.691
14.16,22.949,18.066,24.414,28.32
2.441,21.484,16.602,17.09,17.578
-0.977,21.973,22.949,9.766,17.578
19.531,20.508,28.32,13.672,50.781
19.043,21.484,32.715,16.602,65.918
0.488,19.043,32.715,17.578,8.301
-3.906,15.137,25.391,18.066,-36.133
1.465,18.066,25.879,14.648,-3.906
14.648,18.555,33.203,11.719,5.371
21.484,19.043,41.016,21.484,26.367
15.625,23.438,35.645,24.414,41.016
9.277,20.996,29.785,14.648,55.664
4.395,17.09,30.762,10.742,-0.488
16.113,16.602,29.785,7.812,-27.832
26.367,18.555,30.762,13.184,72.754
12.207,28.809,26.855,14.648,33.203
2.441,35.156,23.438,9.766,0
3.906,32.715,19.043,5.371,41.992
11.23,32.227,18.555,11.719,66.895
25.879,30.273,20.02,19.043,75.195
16.113,26.367,17.09,11.719,-15.137
-2.93,25.879,10.254,7.324,18.066
-8.301,27.344,8.301,2.441,72.266
1.465,26.855,19.043,4.395,-4.395
27.832,24.414,20.508,9.277,-22.949
18.066,21.484,16.602,10.254,35.156
-4.395,20.996,8.301,11.23,53.711
-3.906,19.043,4.883,6.348,32.715
4.395,14.648,16.602,7.812,33.203
17.578,12.207,17.09,13.184,40.039
20.02,10.742,14.648,13.672,41.992
16.113,13.184,11.23,17.09,49.805
8.301,17.09,4.883,6.836,82.52
11.23,17.578,6.348,6.348,93.75
28.809,18.555,17.578,18.555,73.73
26.367,20.02,21.484,22.949,40.039
13.672,17.09,18.066,24.414,34.18
2.441,19.531,20.02,26.367,12.695
8.789,17.578,19.043,26.367,-57.617
30.762,16.113,21.973,18.066,-64.453
35.156,18.555,25.391,19.531,11.719
21.484,19.531,13.672,16.602,81.543
11.23,22.949,9.766,7.812,76.66
13.184,20.508,13.672,9.277,10.254
23.438,18.066,22.461,13.672,-54.199
30.273,20.02,24.902,17.09,28.809
11.719,16.113,13.672,19.043,48.828
6.348,12.695,5.859,18.066,20.508
20.996,15.625,8.789,15.137,-5.859
33.691,12.207,20.508,23.926,-34.668
27.832,10.254,21.484,25.391,-10.254
13.184,13.184,18.066,20.996,42.48
15.137,14.16,18.066,17.09,60.547
12.695,14.16,26.367,5.371,43.457
22.949,14.648,34.668,18.555,28.809
30.762,17.578,34.18,29.297,-9.277
10.742,20.02,38.086,26.855,-46.387
3.418,21.973,28.809,17.09,-71.777
3.418,25.879,24.902,9.277,-0.977
14.16,27.832,32.227,9.766,15.137
25.879,28.809,32.227,11.23,-18.555
14.16,29.297,28.809,19.043,63.477
5.859,29.785,16.113,12.207,50.293
-4.395,30.273,17.09,10.742,5.371
-5.371,25.391,32.227,9.277,38.574
15.625,23.926,41.504,16.602,27.832
18.555,24.414,40.527,25.391,41.016
9.277,21.973,28.32,7.812,47.852
15.137,23.926,24.902,4.883,62.988
23.926,24.414,29.297,18.555,104.492
33.203,24.414,29.297,24.902,36.621
27.344,26.367,29.785,22.949,8.301
14.648,25.391,25.391,18.066,63.477
12.695,24.414,21.973,13.672,41.504
10.742,25.391,23.438,18.066,-10.254
15.137,30.762,30.762,13.672,-45.41
7.324,31.25,36.621,6.836,-46.387
0.977,23.926,26.367,7.812,-55.176
-1.465,24.414,20.508,5.859,-22.461
-3.418,23.438,29.297,11.23,54.199
9.277,18.066,34.668,15.625,-13.672
16.113,21.973,39.062,5.371,-47.852
1.953,26.367,37.598,1.953,22.949
-10.254,25.391,34.18,4.395,59.57
0,27.832,35.156,-0.977,64.941
17.578,25.879,40.039,0.488,45.898
9.277,20.508,41.016,9.766,41.992
-3.906,20.996,35.645,10.742,46.875
1.465,26.367,28.32,0,65.918
4.395,31.738,30.273,-2.93,81.055
10.742,30.762,37.109,-1.465,21.973
23.926,35.156,35.645,-3.418,2.93
12.695,39.551,41.992,4.883,87.891
7.812,37.598,46.875,6.836,112.793
13.184,33.203,35.645,4.883,5.371
9.766,32.227,25.879,1.953,-11.23
22.461,31.738,29.785,7.324,25.391
23.438,28.809,29.297,12.695,34.668
11.23,28.32,26.367,9.766,76.66
11.719,29.785,30.273,5.371,68.359
27.344,34.668,35.645,16.113,19.531
40.039,33.691,40.039,15.625,46.875
33.203,31.738,43.457,12.207,110.84
17.578,29.785,39.551,11.719,58.594
12.207,29.785,36.621,-1.465,-7.324
30.762,28.809,37.109,1.465,26.855
41.016,30.762,37.109,21.973,30.273
23.926,29.785,44.922,29.297,30.273
20.508,25.879,39.551,26.367,28.32
13.184,24.414,26.367,15.625,22.949
7.324,25.391,27.832,3.418,15.137
31.25,29.785,38.574,8.789,42.48
45.898,33.203,43.457,19.043,51.27
27.832,33.203,33.691,22.461,60.547
9.277,35.156,26.367,16.602,59.082
11.719,40.039,36.621,15.137,68.359
27.832,41.992,43.457,26.855,78.125
42.969,44.922,41.504,28.32,30.273
30.762,42.48,41.504,17.09,0
22.461,42.48,41.504,14.16,2.93
28.809,43.945,40.039,12.207,-10.254
35.156,40.527,49.805,8.301,-5.371
35.645,40.527,49.316,7.324,24.414
20.996,39.551,39.062,-0.977,26.367
2.93,37.109,32.715,-9.277,-1.953
10.742,40.527,36.621,-2.441,-75.684
28.809,41.992,40.039,7.324,-26.367
15.625,39.062,34.668,7.812,16.113
0,37.598,28.809,2.93,-31.738
-8.301,37.109,34.18,-4.395,6.836
-8.789,38.086,38.086,-9.766,46.387
-1.953,36.133,37.109,-9.277,54.199
16.113,35.645,38.086,1.465,47.363
15.625,35.156,34.668,8.301,-8.301
3.906,32.227,29.785,1.465,-23.926
11.719,29.785,27.832,-8.301,7.324
21.973,31.738,33.691,3.418,87.402
27.832,29.297,40.039,21.973,137.207
26.855,27.344,32.227,13.184,95.703
23.438,34.18,23.438,0.977,61.523
13.672,30.273,23.926,5.859,32.227
17.09,26.855,27.344,1.953,-1.953
36.621,28.809,33.203,11.719,50.293
32.227,24.414,34.18,21.484,41.504
26.855,20.02,26.855,0.977,-2.441
9.766,17.578,33.691,-12.207,55.176
14.16,19.531,43.457,-2.441,32.715
48.34,20.508,42.969,13.184,-26.855
34.18,19.531,37.109,25.879,-50.781
27.832,21.484,34.18,27.832,1.953
21.484,26.367,38.086,17.578,34.668
0.977,30.762,43.457,8.789,22.461
21.973,29.297,49.316,7.812,-19.043
28.32,26.367,53.711,21.973,-43.457
31.25,39.062,47.363,24.414,33.691
31.738,41.504,43.457,1.465,41.992
15.625,33.203,51.758,10.254,23.926
45.898,37.598,42.969,30.762,-9.766
62.5,38.574,39.062,34.668,-24.414
38.086,33.203,41.504,35.156,4.395
21.484,30.762,39.551,20.996,-35.156
22.461,26.367,41.504,12.207,-10.742
43.945,25.879,42.969,22.461,39.062
53.223,26.367,42.48,32.227,56.641
42.969,25.879,35.645,38.086,52.734
30.273,24.902,26.855,27.344,24.414
29.785,22.461,25.879,21.973,65.918
34.668,20.508,30.762,26.367,46.387
46.387,20.02,32.227,21.484,-36.133
51.27,20.996,26.367,25.879,8.789
31.738,16.113,23.438,30.762,52.246
14.16,14.16,27.344,25.879,75.195
37.598,20.996,22.461,21.484,70.801
49.316,25.391,24.902,18.066,13.184
27.832,24.902,20.508,19.043,61.035
20.02,22.461,11.719,17.578,122.07
11.719,22.949,17.578,-1.465,86.914
23.438,27.344,27.344,-2.441,36.133
41.016,29.785,31.25,8.789,33.203
20.02,27.832,31.25,4.883,-16.113
-5.371,27.344,35.156,-0.977,25.391
-2.93,26.855,30.762,-1.465,26.367
18.555,27.344,25.391,-2.93,9.766
34.18,28.32,31.25,-6.348,46.875
16.113,27.344,40.527,0,87.891
9.766,31.738,25.879,5.371,76.172
15.137,35.156,12.695,-3.418,36.621
13.672,31.25,21.484,-4.883,8.301
13.672,29.297,33.691,-3.418,24.902
8.789,28.809,28.809,2.441,37.109
3.906,29.297,24.414,2.441,13.672
-2.441,30.273,31.738,-13.184,50.293
17.09,30.762,25.391,-13.672,49.805
35.645,28.32,25.391,1.953,24.414
9.766,24.414,20.02,-9.766,56.641
-7.324,21.973,13.184,-12.695,27.344
6.348,23.926,17.09,4.395,-43.457
12.207,26.367,21.973,-1.465,1.953
24.902,24.414,23.926,3.418,50.293
34.18,22.461,22.461,2.441,21.973
25.391,24.414,17.578,-2.441,34.18
19.043,29.297,16.602,-0.977,36.133
9.766,26.367,17.578,1.953,35.156
20.02,26.855,18.555,15.137,41.504
31.738,30.762,20.02,24.902,39.062
21.973,32.227,11.719,6.348,21.973
18.066,33.203,1.465,-5.371,28.32
22.461,29.297,7.324,0.488,51.758
19.531,29.297,14.648,4.395,39.551
19.531,30.273,14.16,4.883,74.707
6.836,26.367,4.883,0,44.922
-0.977,24.902,-6.836,1.465,-6.836
0.488,23.438,-1.953,2.441,23.438
2.441,24.414,8.301,0.488,23.438
30.273,26.855,13.184,2.93,10.742
26.367,25.879,16.602,2.441,3.418
3.906,29.297,24.414,5.371,49.805
2.93,30.762,30.273,4.883,74.707
12.207,26.367,30.273,4.395,44.434
21.973,25.391,37.598,25.391,69.824
12.695,21.973,39.062,26.855,44.434
7.812,20.02,35.156,7.812,-10.254
7.812,22.949,39.062,9.277,2.441
17.578,21.484,41.992,12.207,64.941
44.922,22.461,43.945,35.645,24.414
28.32,21.973,41.992,39.062,29.785
1.953,20.02,34.668,16.113,83.496
10.742,23.926,34.668,17.578,43.457
22.461,25.879,44.434,15.625,65.918
37.109,29.785,47.852,16.602,85.938
37.109,32.227,42.48,27.344,-5.371
26.855,29.785,34.18,25.391,-51.27
19.531,27.832,35.645,15.625,-1.465
27.344,31.25,57.617,13.672,49.805
42.969,33.691,67.871,19.043,74.219
39.551,31.25,60.547,24.414,-29.297
34.18,32.715,55.176,20.02,-8.301
29.297,33.691,54.688,20.508,62.5
25.391,33.691,53.223,22.949,58.594
40.527,31.738,50.293,26.367,38.574
52.734,27.344,52.246,37.109,18.066
41.504,25.879,49.316,35.645,20.02
35.645,27.344,39.062,28.32,2.441
37.598,25.879,40.039,25.879,-6.348
49.805,26.855,45.41,27.832,-16.602
57.617,26.855,51.758,29.297,14.16
40.039,26.855,39.062,23.438,12.695
28.32,27.832,21.484,18.066,-12.695
20.02,30.762,29.785,16.602,-13.184
30.273,33.203,34.668,15.625,46.387
50.293,31.25,35.156,20.02,100.586
35.645,29.785,35.156,17.09,97.168
3.906,28.809,31.25,4.883,17.09
1.953,31.738,28.809,-3.418,21.973
19.531,30.762,30.762,-0.977,41.504
30.273,26.855,38.574,7.324,7.812
34.18,30.273,39.062,7.324,6.836
39.062,31.25,36.621,11.719,43.945
21.973,30.762,34.18,21.973,7.812
29.297,26.855,28.809,23.926,-5.859
45.41,20.996,27.832,20.996,24.902
28.32,24.902,20.508,10.254,12.207
20.996,27.832,14.648,5.371,46.387
19.531,22.461,13.672,5.859,47.852
23.926,20.996,15.137,4.395,32.227
37.598,20.02,22.949,11.23,-41.992
33.203,19.531,23.438,30.762,-31.738
21.484,17.578,19.043,26.367,53.223
17.578,15.137,20.508,3.906,37.598
23.926,12.695,24.414,0.977,47.852
26.855,9.766,26.855,14.16,89.844
14.648,10.742,23.926,17.578,46.387
0.488,15.137,23.926,9.766,40.039
1.953,19.531,27.344,-1.465,72.266
7.812,15.625,33.691,-5.859,-0.977
20.996,14.648,44.922,-3.906,8.789
29.785,19.531,52.246,4.883,55.664
16.113,19.043,48.34,6.836,58.594
-11.719,14.16,37.109,-1.953,24.902
-16.602,13.184,33.691,-1.953,-37.598
8.301,16.602,42.969,2.441,-26.367
14.16,20.02,48.34,8.301,46.387
3.906,20.02,41.992,4.395,14.16
-3.418,18.066,38.574,-7.324,9.766
-7.812,17.09,35.645,-9.277,72.266
7.324,17.578,37.109,3.418,48.34
18.066,18.555,41.504,4.395,3.906
10.254,19.043,30.762,-5.859,-0.488
8.301,20.508,36.133,3.418,28.32
14.648,22.461,42.48,2.93,-1.953
19.531,20.508,38.574,-4.395,-13.672
22.461,19.043,42.969,8.789,16.602
17.578,21.973,38.086,16.113,20.996
4.883,24.902,32.715,8.789,18.066
6.836,29.297,36.621,10.742,-0.977
34.18,28.32,37.598,10.254,14.16
41.504,25.391,44.922,14.16,47.852
18.555,22.949,49.316,18.555,33.691
14.648,23.438,42.969,12.695,-14.648
9.766,25.879,41.016,13.672,20.508
14.16,24.902,36.621,15.625,69.824
37.598,23.926,35.156,22.461,60.059
34.18,21.973,40.039,30.273,69.336
12.695,24.414,34.18,30.273,19.531
10.254,27.832,29.297,15.625,-58.105
22.949,24.414,36.133,20.02,22.949
24.414,25.391,41.016,26.367,105.957
30.273,28.32,46.387,19.531,23.926
20.02,23.438,45.41,17.09,-6.836
7.324,21.484,43.457,10.254,42.48
7.324,21.973,42.48,10.254,36.621
20.02,24.414,40.527,5.859,36.133
32.227,24.902,41.992,10.254,68.848
21.484,22.461,43.457,18.066,78.613
10.742,30.273,34.668,12.695,-16.602
15.137,32.227,31.25,14.648,-49.316
30.273,29.297,34.668,12.695,-11.23
24.414,33.691,29.297,9.277,-33.691
14.648,28.32,25.391,16.602,-20.02
2.441,23.926,27.832,14.16,4.883
9.277,22.949,27.832,7.324,-9.766
30.273,17.09,32.715,9.277,20.996
22.949,16.602,38.574,11.719,78.613
12.207,13.184,28.809,13.184,32.715
6.836,9.766,26.367,10.254,-16.113
5.371,15.137,23.438,1.953,-11.719
15.625,19.531,16.602,-1.953,-22.461
23.926,22.461,24.902,7.812,-31.25
15.137,21.484,25.879,12.695,32.715
15.137,22.461,15.625,2.441,42.48
16.602,23.438,18.066,-4.395,18.555
15.137,21.484,23.438,0.488,2.93
21.484,25.879,28.32,5.859,8.301
15.625,26.855,23.438,1.953,61.523
14.648,23.438,16.602,1.953,43.457
14.16,29.297,14.16,-3.418,15.625
12.207,32.227,13.672,0.977,47.363
19.043,30.762,17.578,17.09,58.105
13.672,28.809,18.066,23.438,46.387
2.93,29.785,13.672,12.207,46.875
13.672,30.273,9.766,0.488,26.367
29.785,27.832,14.648,0.488,41.016
31.25,27.832,30.762,10.742,51.758
20.508,27.344,30.273,20.02,-27.832
19.531,29.297,26.855,21.973,-7.324
23.926,30.273,30.762,20.508,4.395
21.484,29.297,41.016,20.996,-15.137
37.109,32.227,49.316,21.973,-1.953
39.551,30.762,41.016,22.461,-43.945
25.879,27.832,36.133,22.949,-48.828
24.414,29.297,31.25,20.996,-12.695
27.344,32.227,22.949,15.137,62.5
35.156,30.762,32.715,13.184,78.613
41.992,31.25,32.715,23.926,72.754
41.504,31.738,20.996,23.926,51.27
25.879,27.344,25.879,20.508,-11.23
26.855,27.832,32.227,17.09,-3.418
44.434,26.855,34.668,15.625,-0.488
37.598,22.949,39.062,20.508,23.926
28.809,23.438,29.297,17.09,28.32
14.16,25.879,21.973,15.137,-8.789
15.137,30.273,22.949,18.066,26.367
37.109,26.855,26.367,19.531,73.242
35.156,24.902,33.203,21.973,62.012
17.09,26.855,36.133,20.996,56.641
17.09,26.367,37.598,23.438,39.551
22.949,24.902,36.621,20.996,28.809
23.926,20.996,34.18,22.949,56.641
25.391,17.578,30.762,24.902,64.941
22.461,16.602,18.555,20.996,26.367
14.16,20.02,21.484,12.695,69.824
11.23,21.973,31.738,6.348,56.641
25.879,21.973,25.879,16.602,22.461
34.18,23.438,30.273,26.367,42.48
30.273,20.508,32.227,26.367,-36.621
21.973,19.531,32.715,20.996,-47.363
13.672,21.484,38.574,11.23,30.273
24.414,20.02,39.551,9.277,37.598
40.527,23.438,42.48,16.602,29.785
29.785,26.855,39.551,18.555,65.918
30.273,29.785,38.086,17.578,53.711
29.297,33.203,39.062,20.02,-4.883
20.02,32.227,40.527,16.602,-22.461
29.297,34.18,48.34,14.648,26.367
23.438,35.156,45.41,19.531,66.406
20.508,33.691,36.133,15.625,-40.527
22.949,34.668,37.109,7.324,-65.918
24.414,33.691,37.598,17.09,20.02
38.574,32.227,41.504,17.578,57.129
34.18,33.691,50.293,20.996,61.035
15.137,32.715,49.805,20.996,45.898
15.137,28.809,47.852,18.555,34.668
23.438,26.855,40.039,11.23,50.781
31.738,22.949,40.527,12.207,62.5
32.227,20.508,40.527,12.207,-5.371
15.625,21.973,33.203,1.953,16.602
9.277,22.461,37.598,1.465,77.148
18.066,21.973,36.621,7.812,2.93
23.926,20.508,36.621,7.812,-24.902
22.949,21.973,43.457,7.324,16.113
14.648,22.461,42.969,12.695,35.156
7.812,21.484,41.992,5.371,28.32
10.254,22.461,45.898,0.977,68.359
29.785,23.926,48.828,10.254,66.406
33.203,23.438,45.41,21.973,5.859
16.602,21.484,39.062,21.973,44.922
9.277,22.461,33.691,17.578,25.879
4.883,20.996,31.738,13.184,-20.02
20.996,22.461,42.48,12.695,34.18
26.367,23.926,47.852,20.996,33.203
12.695,19.531,41.504,19.043,22.461
8.789,14.648,46.387,11.719,5.859
8.301,12.207,53.223,11.719,24.414
18.555,10.254,51.27,20.02,45.898
37.109,13.184,52.246,26.367,21.484
27.832,14.648,42.48,24.414,33.203
17.09,15.625,36.133,20.02,24.902
10.742,16.602,43.457,11.719,43.457
15.625,15.137,49.316,10.742,47.852
30.762,16.602,51.758,18.066,19.043
24.414,15.137,49.805,21.484,37.598
22.461,14.648,46.387,20.02,83.984
21.973,16.113,39.551,17.578,76.66
27.344,16.602,39.062,14.648,44.434
43.945,23.926,50.781,20.02,44.434
39.551,23.926,52.734,24.414,24.902
25.391,19.531,43.457,22.949,5.371
19.531,21.484,40.039,22.461,28.32
32.227,22.461,37.598,21.973,12.207
48.34,26.855,36.621,27.344,-46.387
39.062,25.879,39.062,33.203,-53.223
24.902,26.367,37.109,27.832,-10.254
16.602,25.879,39.551,19.043,24.414
24.414,23.438,37.109,24.902,6.836
39.062,23.926,34.668,30.273,-23.438
44.922,28.809,38.086,33.691,21.973
39.062,31.738,35.156,34.18,55.176
28.32,23.438,35.156,30.273,35.156
30.762,23.926,28.809,33.203,18.066
40.527,30.762,21.973,34.18,3.418
45.41,35.645,26.855,38.574,1.953
37.598,34.18,22.461,39.062,-3.906
29.785,29.297,18.066,32.227,36.133
27.344,25.879,22.461,35.645,32.715
41.504,24.414,22.949,36.133,4.883
51.758,26.367,27.832,37.598,39.062
41.504,28.32,16.113,35.645,62.012
36.133,28.32,6.836,21.973,41.992
27.344,30.762,8.789,21.973,31.25
35.156,32.227,2.441,29.297,10.254
52.734,29.297,0.488,34.18,-11.23
43.945,24.414,-4.395,30.273,19.531
24.414,21.484,-1.953,21.973,10.254
14.648,22.949,7.812,30.273,46.387
27.832,26.367,7.324,32.715,31.25
41.992,26.367,12.207,22.949,-22.949
33.691,29.297,12.207,21.484,27.344
25.391,29.297,4.395,17.09,-6.836
24.902,23.926,4.883,9.766,18.555
30.762,20.02,11.23,16.602,113.77
42.48,21.973,19.043,22.461,92.773
36.133,25.391,14.648,28.32,5.859
24.902,23.926,17.578,31.25,48.828
20.02,26.367,21.973,24.902,57.129
31.738,31.25,11.23,22.461,-3.906
40.527,27.344,16.602,31.25,62.988
41.504,20.02,15.137,40.527,65.43
47.852,22.949,2.441,39.062,-10.742
37.598,18.066,5.859,39.062,-25.879
44.434,15.625,12.207,59.57,-4.395
51.758,27.832,12.207,61.523,42.48
31.25,31.25,12.207,34.18,70.801
33.203,30.273,9.277,23.438,49.316
29.785,32.227,7.812,11.23,20.508
16.113,29.297,12.695,9.766,37.109
33.691,27.832,19.531,20.508,51.758
37.598,31.738,20.02,20.508,19.043
20.02,30.762,10.742,15.625,34.668
8.789,28.809,5.859,-0.977,52.246
12.695,32.715,5.371,-10.742,36.621
20.996,32.715,10.742,-8.301,61.523
52.734,31.738,15.625,5.859,19.043
45.898,31.25,12.695,3.906,-7.324
16.602,28.809,11.23,-7.324,26.855
20.02,35.645,14.648,4.883,54.688
30.273,39.551,11.23,11.23,22.949
33.203,36.133,17.578,0.488,10.254
27.344,34.18,11.23,-10.254,49.805
22.949,35.156,3.906,-7.812,43.457
17.578,34.18,8.301,5.859,1.953
34.668,39.551,8.301,5.859,32.715
49.316,44.922,9.277,2.93,26.855
27.832,38.086,12.695,12.207,0.977
38.086,31.25,17.578,21.484,37.109
26.855,27.344,16.602,22.461,55.664
10.254,27.344,21.973,13.672,6.348
36.133,30.762,32.227,11.719,-6.836
34.668,30.273,19.531,17.09,73.73
25.879,32.227,6.836,10.254,54.199
26.367,33.691,9.277,11.719,67.383
26.855,27.344,12.207,27.832,62.012
45.898,23.926,27.832,32.227,32.715
50.781,29.297,32.227,18.066,41.504
36.621,37.109,23.926,10.254,90.82
26.367,36.621,23.926,9.766,84.473
33.203,30.762,22.949,6.348,66.895
46.875,31.738,31.738,25.391,56.152
44.434,34.668,35.645,33.691,57.617
20.508,27.832,36.133,14.648,49.805
15.137,32.715,40.527,18.066,50.781
26.855,39.551,30.762,12.695,-1.953
36.621,35.156,30.762,5.371,-39.062
44.922,37.598,29.297,21.973,0.488
35.156,41.992,24.902,17.578,49.316
8.789,27.832,32.227,13.672,50.781
3.906,22.949,32.227,19.043,-3.906
22.949,37.598,25.879,6.348,-3.906
25.879,36.133,27.832,-3.418,20.508
24.902,31.738,24.414,11.23,12.695
24.414,33.203,11.23,8.301,-1.465
13.672,23.438,22.949,12.695,-1.465
12.207,20.996,38.086,16.602,29.785
20.996,26.855,34.668,4.883,53.711
12.695,21.484,32.715,13.672,55.664
11.23,22.949,18.555,17.578,46.387
-2.93,20.02,19.043,15.625,34.668
-6.836,16.113,28.809,12.695,62.5
8.301,18.555,24.414,3.418,55.176
8.301,26.855,17.09,-3.418,11.23
15.137,31.738,17.09,2.441,10.742
3.418,20.996,26.367,27.832,36.621
14.16,21.484,28.32,22.949,5.859
35.156,28.32,26.855,16.113,9.277
35.645,34.18,21.484,28.32,16.113
26.855,31.738,33.203,20.02,49.316
1.465,34.18,32.715,12.207,77.148
5.859,34.18,26.855,20.996,-3.906
30.762,30.273,41.016,40.527,19.531
29.297,36.621,21.484,25.879,51.27
16.113,41.504,7.812,0,48.828
17.578,43.945,21.973,4.883,83.984
29.785,40.527,28.32,11.719,80.078
39.551,38.086,32.227,9.277,71.289
18.555,31.738,24.902,19.043,16.113
0.977,29.297,20.996,20.02,17.09
18.066,39.062,15.625,4.395,31.25
26.855,40.039,7.812,1.953,-1.465
35.645,40.527,17.578,5.859,6.348
40.039,47.363,17.09,-1.953,10.742
50.781,48.34,13.184,9.277,64.453
33.203,41.016,15.625,21.484,25.879
2.441,41.992,16.113,-1.953,42.48
21.484,43.457,21.973,-0.488,114.746
25.391,42.969,17.09,8.789,37.109
15.625,45.898,12.207,0.488,24.902
17.09,41.016,13.672,13.184,63.477
25.391,40.527,22.461,15.137,32.227
41.016,46.387,25.391,-1.953,19.531
42.48,44.922,29.297,3.418,41.016
22.949,37.598,27.344,12.207,22.461
3.906,35.645,25.879,6.348,-5.371
16.113,45.898,27.344,1.465,70.801
22.949,41.992,27.832,-4.395,67.871
27.344,32.715,36.621,9.277,8.789
14.16,32.715,33.691,21.973,41.992
21.484,38.086,21.973,16.113,21.973
11.23,39.062,15.625,-2.93,26.855
8.789,41.016,15.625,-8.789,7.324
47.852,50.293,17.578,4.395,-1.465
31.738,42.969,17.578,16.113,42.48
6.836,39.551,19.043,16.113,41.016
12.207,55.664,18.066,5.371,54.688
24.902,59.082,12.695,9.277,-11.719
41.992,56.641,20.996,31.25,15.137
41.992,62.988,16.602,23.438,94.238
23.438,61.523,10.254,14.16,44.922
0.488,54.199,16.602,1.465,56.641
-4.395,46.875,20.996,-2.93,3.418
20.996,40.039,30.273,20.996,0
22.461,42.48,20.508,20.02,42.48
18.555,44.434,11.23,11.719,47.852
24.902,41.992,12.207,20.02,50.781
24.902,47.363,7.812,16.113,38.086
28.809,51.758,12.695,7.324,11.23
18.066,51.758,14.16,15.625,16.602
7.324,48.34,9.766,17.09,-22.461
-2.93,46.387,9.766,10.742,-22.461
1.953,50.293,6.348,11.719,32.227
25.879,57.617,14.648,20.508,45.898
29.785,59.57,20.508,22.461,-41.992
26.367,60.059,20.996,20.02,-53.711
18.066,63.477,19.043,14.648,-18.066
11.23,62.012,28.809,16.602,-33.203
49.316,66.895,42.969,31.738,12.695
50.781,60.059,39.062,30.273,16.602
15.625,50.293,41.016,21.484,44.922
16.602,60.059,42.969,22.949,55.664
16.113,57.129,36.133,19.043,-25.391
43.945,55.664,25.879,24.414,-18.555
53.711,54.688,23.926,33.203,33.203
22.949,45.898,22.461,25.391,30.762
24.414,46.387,16.113,25.879,77.148
35.156,53.223,8.301,22.949,36.133
37.109,49.805,14.648,14.648,1.465
48.34,43.945,32.715,31.25,28.809
35.156,46.875,25.879,39.551,19.043
27.344,48.828,18.555,27.832,36.621
33.691,47.363,17.578,32.227,72.266
41.016,48.34,19.043,33.203,59.082
59.082,54.688,20.996,21.484,-5.859
43.457,55.664,24.414,26.855,25.879
20.508,44.922,27.344,39.062,35.156
22.461,36.621,20.508,33.691,-9.277
32.227,38.574,22.461,22.461,-52.246
49.316,38.574,32.227,23.438,-65.918
42.48,36.621,26.855,31.738,-32.227
27.832,36.621,25.391,28.32,16.113
31.25,37.598,24.414,15.137,-4.883
33.203,34.18,27.344,7.812,19.043
36.133,28.809,35.156,23.438,74.219
24.414,31.738,24.414,20.508,73.73
14.648,28.809,22.461,16.113,66.895
23.438,28.32,26.367,23.438,77.148
22.949,32.227,24.902,11.719,31.25
24.414,26.855,35.645,22.949,32.227
25.391,20.508,40.527,47.852,43.945
28.32,30.273,26.367,20.02,-20.508
31.25,41.504,23.438,-8.301,35.156
29.785,38.574,24.414,6.348,51.27
40.527,35.156,25.879,27.344,46.387
38.086,24.902,26.367,38.574,-34.668
34.668,26.367,25.391,41.016,-77.637
31.25,36.133,18.555,23.926,13.672
18.555,28.32,21.973,6.348,-25.391
33.203,27.832,32.715,9.277,-7.324
33.203,31.738,24.414,3.418,43.457
23.438,31.738,25.391,4.395,34.18
5.371,23.926,42.48,25.879,62.988
8.301,21.484,33.203,21.973,33.691
32.227,32.227,25.879,14.648,-25.879
42.969,40.527,26.367,14.16,31.25
33.203,38.086,25.879,13.672,32.227
25.879,34.18,31.738,14.648,5.371
25.391,30.762,26.855,17.578,-12.207
34.18,31.25,24.414,20.02,41.016
47.852,39.062,17.09,21.973,89.355
36.133,41.992,8.301,10.742,33.691
36.621,39.551,9.277,10.742,14.16
30.273,31.738,16.113,27.344,26.367
25.879,30.762,18.555,21.484,22.461
39.062,32.227,21.484,33.691,34.18
34.668,33.203,16.113,25.879,33.691
26.855,39.062,8.789,6.836,43.457
15.137,30.762,28.809,25.391,71.289
13.184,28.809,31.25,25.879,71.289
18.555,31.25,27.832,24.902,35.156
23.438,35.156,31.738,26.367,59.57
21.973,38.574,30.273,17.09,65.918
22.949,30.762,30.762,29.785,26.367
25.879,27.344,29.785,29.785,11.23
36.133,32.715,30.762,22.461,19.531
29.297,33.691,24.414,26.855,52.246
4.883,33.691,17.09,6.836,47.852
18.555,40.039,22.461,3.418,18.555
37.109,40.527,31.738,19.043,16.602
45.41,39.551,40.527,24.414,20.996
29.297,37.598,32.715,7.812,13.672
11.719,34.18,36.133,0.488,47.852
14.648,32.227,51.27,16.602,83.984
24.414,26.367,49.805,18.066,40.527
31.25,24.902,54.688,23.926,12.695
21.973,28.32,53.711,25.391,26.367
31.25,31.25,42.969,16.113,25.391
36.133,25.391,40.527,23.438,-4.883
23.438,24.902,41.504,20.02,4.395
29.785,24.414,45.898,22.461,-51.758
35.645,22.949,48.34,47.363,-14.648
18.555,26.367,39.551,41.992,88.867
9.277,27.832,23.438,15.137,68.359
23.926,30.762,15.137,9.277,66.895
36.621,33.203,21.973,23.438,24.414
27.832,26.855,27.344,22.461,28.809
16.602,29.297,27.832,3.906,51.758
7.812,28.32,41.504,6.348,32.227
5.859,23.438,41.504,19.531,30.762
29.297,33.203,24.414,20.996,22.949
31.738,33.691,25.879,25.879,5.371
30.273,32.227,27.832,33.203,-30.273
34.18,40.527,24.902,30.762,-42.969
19.531,44.434,24.902,11.719,-12.207
18.555,40.527,29.785,11.23,-14.16
34.18,39.062,34.18,32.227,-22.949
35.156,37.109,25.879,26.367,31.738
19.531,38.574,19.531,4.395,36.133
18.066,38.574,25.879,17.09,44.434
10.742,27.832,37.109,25.879,46.875
27.832,27.344,41.992,25.879,23.438
36.621,31.25,34.668,21.484,44.434
20.508,24.414,32.227,27.344,39.062
23.438,25.879,25.391,28.32,49.316
21.484,25.879,28.32,19.043,62.988
24.414,20.996,41.504,17.578,68.359
29.785,24.414,39.062,11.719,59.082
20.996,28.809,33.691,6.836,66.895
14.16,25.879,30.762,12.695,-11.719
29.297,25.391,26.367,24.902,-14.16
34.18,27.832,22.949,10.742,12.207
27.832,27.832,21.484,0.977,73.242
23.438,28.32,19.043,9.766,74.707
17.09,23.438,16.113,15.625,11.719
5.371,16.113,19.043,13.184,23.438
7.324,16.113,26.855,13.184,32.227
30.762,25.879,27.832,20.996,13.672
39.551,28.32,23.926,30.762,2.93
22.949,24.902,17.578,14.16,20.996
14.16,23.926,19.043,9.766,77.148
36.621,24.414,29.297,24.902,24.902
50.293,27.344,29.785,41.992,-42.48
33.691,25.879,37.109,39.551,-31.738
5.859,23.438,44.922,14.16,-24.902
20.508,31.25,38.574,14.648,16.602
50.781,36.133,36.621,17.578,17.578
41.016,28.809,43.457,16.602,8.789
31.25,30.762,41.016,20.02,52.246
30.762,39.551,32.715,14.648,47.363
5.859,33.691,37.598,27.344,46.387
18.555,26.855,41.016,34.18,5.859
29.297,28.32,39.062,27.832,-17.578
10.742,31.738,34.668,20.996,3.906
20.02,39.062,27.832,6.348,26.855
12.207,37.598,18.555,-0.488,19.043
16.113,30.762,24.414,17.578,-2.93
31.738,27.832,38.086,29.297,-6.836
23.926,28.809,42.969,39.551,18.555
17.578,31.25,41.992,37.109,16.113
29.297,35.156,41.016,23.438,21.484
49.316,40.039,40.039,22.461,39.062
41.992,35.156,43.457,19.531,40.039
13.184,30.273,47.852,11.719,6.348
5.859,33.203,40.527,11.23,-11.719
20.02,33.691,29.297,13.184,46.875
35.156,31.738,23.438,8.301,66.406
39.551,24.414,39.551,20.02,69.336
26.367,20.508,45.41,25.879,59.082
11.23,25.879,36.133,16.602,72.754
11.23,27.832,26.855,13.184,55.664
19.043,24.902,20.508,16.113,-20.02
36.621,23.926,26.855,26.367,-5.859
41.016,22.949,14.648,18.555,-18.555
31.738,26.367,5.859,5.371,-15.625
29.785,26.855,18.066,5.859,4.395
20.508,23.438,25.879,10.742,-21.973
24.902,24.902,38.086,23.438,-12.695
34.18,30.273,42.48,19.531,11.23
31.25,32.715,41.992,20.508,61.523
22.949,35.645,31.738,23.926,44.922
30.762,35.645,22.949,9.277,50.781
40.527,27.344,34.668,17.09,50.781
30.273,24.414,29.785,19.531,83.496
25.391,21.484,24.902,14.16,111.816
29.785,26.367,21.484,9.766,41.992
29.297,38.574,9.766,2.441,-33.203
27.344,36.621,20.02,12.207,-6.348
37.598,27.344,27.832,27.344,8.301
43.945,30.762,27.344,29.297,46.875
32.715,36.621,23.438,14.648,47.363
17.09,32.715,20.02,11.23,56.641
25.879,29.297,28.32,12.207,7.324
50.293,30.273,30.273,44.922,8.301
41.992,30.762,24.902,48.34,92.285
21.484,29.297,18.066,16.602,33.203
15.625,33.691,4.883,15.137,40.039
14.648,30.273,11.719,2.93,41.504
17.09,24.902,27.344,8.301,46.875
15.625,32.227,13.184,7.812,44.434
15.625,35.156,4.883,-12.207,26.367
7.324,28.32,15.625,-3.906,40.039
10.254,19.043,20.508,6.836,49.805
35.156,16.113,31.25,13.184,55.176
27.344,22.949,33.691,26.367,36.621
3.906,24.414,32.227,25.879,31.25
4.883,26.367,38.574,26.367,66.406
30.762,36.133,29.785,33.203,60.547
40.039,35.156,33.203,20.996,26.855
38.086,24.414,47.852,20.996,48.828
41.992,28.32,52.734,35.645,72.754
28.32,39.062,47.852,28.809,26.855
19.531,35.645,43.945,32.227,34.18
26.367,29.785,53.711,41.504,36.133
33.203,32.715,49.805,48.828,21.973
40.039,34.668,45.41,53.711,44.922
38.574,37.598,38.574,41.016,-13.184
18.066,38.574,37.109,22.461,-20.508
12.207,37.109,41.016,13.184,22.461
25.879,36.133,36.133,25.391,-15.137
27.344,28.809,39.551,26.855,11.719
19.531,27.344,43.945,19.043,73.242
10.254,30.762,46.875,28.809,52.734
33.203,37.598,48.34,31.738,80.566
57.617,43.457,41.992,29.785,101.562
41.504,33.691,38.574,34.668,63.965
9.766,29.297,37.598,14.16,41.016
1.465,31.738,29.785,-2.93,21.973
13.672,21.484,40.039,20.508,56.152
36.621,20.508,46.387,35.645,60.547
40.039,31.738,34.668,16.113,0.488
10.742,27.832,30.273,6.836,-35.645
2.93,23.926,32.715,17.578,-44.434
31.738,20.02,40.039,41.992,-2.93
51.27,19.043,36.621,46.875,51.758
33.203,23.926,30.273,26.367,81.055
6.836,25.879,33.691,8.789,35.156
1.953,28.809,22.949,-4.883,55.176
12.695,27.344,10.254,3.906,-0.977
18.555,28.809,18.066,18.066,-91.309
14.16,27.344,20.996,12.207,-9.277
13.672,24.414,10.742,4.883,32.227
3.906,24.414,0.488,-5.859,-3.906
2.93,23.438,-4.395,-31.738,-53.223
8.301,20.996,7.812,-20.996,9.277
15.625,22.461,3.418,0,21.973
16.113,23.926,-4.395,-3.418,-66.406
7.324,23.926,3.418,-0.488,-37.598
11.719,26.855,5.371,2.441,17.09
15.625,27.832,10.742,5.859,2.93
29.785,25.879,12.207,17.578,-64.941
47.852,25.879,10.254,16.113,-58.105
30.762,25.391,10.254,8.789,-19.531
14.648,25.879,21.973,23.926,-23.926
34.668,31.25,29.297,29.785,-36.621
40.039,32.227,24.414,19.531,12.695
23.438,25.879,36.133,31.25,73.73
8.789,21.484,36.621,29.297,25.391
24.414,26.367,21.973,9.766,-6.836
47.363,30.273,24.902,15.625,94.727
34.668,26.367,22.461,24.902,106.934
20.02,25.391,20.996,25.879,19.531
19.043,29.297,32.227,34.668,10.254
32.715,27.344,30.273,35.645,37.598
46.875,26.855,22.949,8.301,43.457
28.809,22.461,31.25,10.254,26.367
13.184,21.973,35.156,23.438,66.895
14.648,24.902,19.043,13.184,80.078
19.043,25.391,8.301,9.766,36.133
24.902,27.832,12.207,5.371,-1.953
23.926,20.996,17.578,22.949,34.18
26.367,20.996,12.207,17.09,86.426
27.344,34.18,4.883,-0.488,40.527
9.277,33.203,3.418,4.395,51.27
10.254,26.367,4.883,10.254,15.625
22.461,25.879,12.207,21.484,-9.277
25.391,25.879,23.438,24.902,45.41
11.719,26.367,23.438,8.789,30.762
14.648,28.32,11.23,15.137,32.715
28.32,23.926,13.672,13.672,29.297
36.621,20.02,22.949,14.16,-10.742
32.715,13.184,32.227,28.32,-9.277
26.367,14.648,36.133,19.043,81.055
10.254,19.531,24.902,15.137,88.379
21.484,23.926,19.531,12.695,-24.414
44.922,23.926,38.574,21.973,45.41
30.273,20.996,41.992,20.508,60.547
20.02,24.414,32.227,7.324,14.16
0.977,20.02,36.621,1.953,28.32
18.555,22.461,39.551,9.277,33.691
33.691,22.461,40.527,15.137,33.691
19.043,15.625,27.832,16.602,10.742
13.672,18.555,20.996,24.902,77.148
-0.488,19.043,27.344,21.973,45.898
-0.977,16.113,30.273,11.719,-26.367
22.949,19.531,33.203,9.766,16.113
30.762,15.625,34.668,25.879,17.578
22.461,12.695,35.156,38.574,49.316
12.695,16.602,29.785,27.832,48.34
13.184,18.066,24.414,23.438,-6.348
27.832,14.16,30.762,35.156,52.734
30.273,19.531,30.273,35.156,92.285
37.598,32.715,11.719,26.855,34.18
40.527,33.203,5.859,39.551,-13.184
30.273,23.438,27.832,42.48,22.461
23.438,14.648,46.875,31.25,87.402
13.672,5.859,38.086,29.785,34.668
17.09,9.277,21.973,20.996,41.992
22.461,16.602,20.508,7.812,73.242
9.277,8.789,21.973,15.137,62.012
16.113,6.348,28.32,33.691,85.449
37.598,12.695,22.949,20.996,38.086
8.789,14.648,21.484,18.066,6.836
-18.066,10.254,30.273,18.066,26.367
-16.602,13.672,28.32,7.324,26.855
-4.395,19.043,30.273,11.719,27.344
25.391,18.066,37.109,12.207,17.578
13.184,15.625,43.945,20.996,-16.113
-18.066,10.742,52.734,36.621,-10.254
-6.348,11.23,49.805,24.414,69.336
11.23,12.207,40.527,21.484,74.707
12.207,13.184,45.41,30.762,41.992
14.648,14.16,42.969,19.531,11.719
9.277,18.555,36.621,12.695,25.879
0.977,18.066,35.645,25.879,100.586
8.789,19.043,26.855,19.531,79.59
31.25,24.902,24.414,18.555,22.461
39.551,20.02,26.367,41.992,-16.113
18.066,17.578,30.762,17.578,-42.48
0,22.461,29.785,-12.207,-34.18
-4.883,24.414,25.879,-1.465,33.691
8.301,17.578,37.598,11.23,47.852
16.602,19.531,43.457,8.789,17.09
13.672,20.996,49.316,9.277,-0.488
3.418,13.184,56.152,12.695,33.203
-4.395,9.766,51.27,12.207,77.637
10.742,13.184,46.875,20.996,42.48
10.254,19.043,41.992,13.184,19.043
-5.371,15.137,39.062,10.742,51.758
0,10.254,36.133,16.602,69.336
4.395,7.324,35.156,13.672,32.715
13.184,5.859,41.016,20.996,31.738
28.32,11.719,36.621,22.949,94.238
10.254,15.625,32.227,16.113,34.18
-10.254,10.742,30.762,20.996,6.836
4.883,11.719,21.973,16.602,24.902
26.855,22.461,23.438,1.465,-42.969
32.227,22.461,31.738,20.02,19.043
36.621,21.484,31.738,15.625,90.332
18.066,24.414,34.18,7.812,41.016
10.254,23.438,32.715,21.484,1.953
18.555,18.555,36.133,8.789,10.254
15.625,16.113,40.039,14.648,51.758
11.719,17.09,36.133,12.695,39.551
8.301,13.672,37.109,-4.883,-23.926
15.137,16.113,29.785,-8.301,-20.508
22.949,17.09,22.949,-2.441,41.016
14.648,7.812,32.715,17.578,51.27
7.812,10.254,35.645,24.902,63.965
21.973,17.09,25.391,8.789,-11.23
23.926,18.066,30.762,8.301,-13.184
14.648,21.484,35.645,7.812,78.125
7.812,12.695,35.645,15.137,35.645
7.812,9.277,37.598,20.508,4.395
-0.977,18.555,34.668,14.16,17.578
-7.812,14.648,40.039,14.648,39.062
5.859,12.695,41.992,4.883,22.461
15.137,15.625,37.109,9.277,-10.742
22.949,17.578,33.203,11.23,14.16
26.855,19.531,36.621,15.625,-9.277
16.113,21.973,40.039,24.902,-24.414
8.789,27.832,32.227,16.113,-8.301
34.668,33.691,26.367,14.648,-8.789
30.273,28.32,33.203,21.973,39.062
-2.441,23.438,39.551,24.414,79.59
4.883,25.391,28.32,24.414,70.801
16.113,27.832,22.949,22.461,-2.93
37.598,27.832,36.133,16.113,13.672
40.527,25.391,36.621,19.531,51.758
13.672,26.855,33.691,19.531,35.156
10.254,27.344,32.227,14.16,45.898
19.043,25.879,24.414,18.555,38.574
29.785,24.414,23.438,14.16,7.812
28.32,20.508,16.113,22.461,19.531
2.441,20.508,18.555,17.578,63.477
-15.137,21.973,19.531,-3.418,9.277
-4.395,22.949,13.184,5.859,6.348
24.414,28.809,10.742,8.789,92.285
39.551,35.645,8.301,18.555,55.664
37.598,40.039,4.883,23.438,11.23
17.578,39.062,9.766,15.137,10.254
12.695,34.668,15.625,4.883,2.441
17.578,37.109,25.391,8.789,17.578
26.855,40.039,31.25,29.785,75.684
31.738,35.645,28.809,36.133,64.941
20.508,30.273,29.297,29.785,64.453
20.996,30.273,20.996,7.324,95.215
29.297,29.297,15.625,3.906,12.207
29.297,23.438,24.414,20.02,-7.324
19.043,24.902,22.461,16.602,16.602
8.789,29.297,23.926,11.719,-31.25
8.789,33.691,20.508,3.418,22.461
25.879,35.645,9.766,-2.93,3.906
37.109,32.227,14.648,13.184,-0.977
24.902,30.762,20.02,24.414,10.254
15.137,30.762,22.461,12.695,-6.348
33.203,33.203,16.602,11.23,-5.859
31.25,34.18,15.625,8.301,-11.23
6.348,27.344,21.484,10.254,-21.484
3.906,22.461,21.484,8.301,-24.414
14.16,30.273,24.902,8.301,-4.883
20.996,33.203,20.996,8.301,27.344
21.484,27.832,15.625,0.977,61.035
32.227,26.367,16.113,7.324,52.734
36.133,20.996,19.043,16.602,-2.441
29.297,21.484,29.297,23.438,3.418
14.16,24.902,30.273,18.555,41.992
11.23,29.785,20.508,11.23,53.711
23.926,29.297,27.344,18.066,54.688
38.574,29.785,29.785,25.391,30.273
27.344,29.785,24.902,25.391,29.297
20.996,29.297,23.926,31.25,-2.93
42.969,37.598,16.602,22.461,2.441
38.086,38.086,15.625,18.555,64.453
47.363,33.203,21.484,33.203,28.809
48.828,36.621,23.926,27.344,-5.859
16.113,37.598,18.066,18.555,41.992
8.301,34.668,17.578,16.602,36.133
23.926,34.18,31.25,12.695,42.48
44.922,34.18,31.25,26.367,93.262
37.109,39.551,23.926,38.086,8.789
7.324,37.598,20.508,19.043,-18.066
10.254,41.992,20.508,15.137,15.625
26.855,44.922,19.531,14.16,-38.086
29.785,36.133,28.32,23.926,28.809
18.066,34.18,28.809,32.715,3.418
7.812,38.086,22.461,20.02,-33.203
19.043,40.039,20.02,24.414,47.852
40.039,41.016,23.926,30.762,59.082
53.223,39.062,30.273,33.691,26.855
51.758,43.457,26.367,29.297,51.27
40.527,42.969,30.273,30.273,51.27
26.367,38.086,36.133,38.086,16.602
23.926,38.086,35.156,35.645,6.348
46.875,37.598,31.25,29.297,-9.766
57.129,37.598,28.32,29.297,36.133
36.133,34.18,30.762,20.508,52.246
27.832,36.621,22.461,14.16,23.438
14.648,32.227,16.602,18.555,34.18
11.23,26.855,27.344,26.855,64.941
18.066,30.762,24.902,30.273,61.523
13.672,29.785,26.367,21.973,49.805
13.672,27.344,40.039,14.648,15.625
18.066,29.297,40.039,15.137,16.602
29.785,27.832,33.691,23.926,11.23
28.809,26.367,28.32,28.809,-36.133
17.09,28.32,38.086,26.855,6.348
11.23,29.297,38.574,35.156,16.602
34.668,28.32,25.879,23.926,-22.461
49.805,24.902,26.855,12.207,4.395
25.879,24.414,30.762,25.391,45.898
10.742,21.973,37.598,27.344,26.367
7.812,20.508,43.945,24.414,26.855
3.418,24.414,30.762,12.207,-5.859
26.367,28.32,23.926,-0.488,-31.25
34.18,29.785,25.391,3.906,22.461
16.113,28.32,25.879,11.719,82.031
12.207,24.902,21.484,8.301,123.047
21.484,24.414,9.766,8.301,49.316
32.715,23.438,17.578,20.508,31.25
41.016,24.902,27.832,24.414,44.922
27.832,28.809,20.996,18.555,-9.766
12.695,25.879,20.508,21.973,1.953
20.996,24.902,12.695,14.648,54.688
25.879,27.344,12.695,8.301,48.828
22.949,24.902,20.508,19.043,39.551
14.648,23.926,24.902,25.879,6.836
6.836,20.996,30.762,30.273,-42.969
11.23,25.879,25.879,22.461,24.902
24.902,33.203,23.926,17.578,77.148
25.879,31.25,28.32,18.555,18.555
16.602,28.809,29.297,16.602,-22.949
27.832,27.832,24.902,18.066,2.441
29.297,27.344,22.461,14.648,12.207
21.973,23.926,27.344,9.766,-1.953
61.523,26.855,29.297,8.301,33.203
60.059,32.715,27.344,22.949,27.832
26.367,30.273,38.086,28.32,40.039
22.949,24.902,38.574,12.207,70.312
20.996,24.902,33.691,15.625,3.418
30.762,24.902,41.016,24.902,-13.184
26.367,25.879,45.41,29.297,0
16.602,27.344,41.016,21.973,-0.488
20.996,27.344,34.18,21.973,7.324
19.043,26.367,35.156,22.949,0
30.273,24.414,35.156,7.324,-0.977
25.879,22.949,42.969,9.277,20.996
5.859,23.926,49.316,17.09,25.391
-5.859,25.391,43.945,12.207,20.02
2.441,27.344,41.504,9.277,8.789
37.598,28.32,41.504,11.719,-12.695
31.25,20.02,40.527,18.066,-9.766
2.93,19.531,44.922,16.602,17.09
-1.953,25.879,39.062,6.348,53.223
-4.883,25.391,30.762,6.348,59.57
10.742,22.461,41.016,22.461,38.574
21.973,20.508,42.969,25.391,41.504
33.691,23.438,42.48,19.043,107.422
44.922,27.344,34.18,18.555,113.281
8.789,26.367,30.273,24.414,13.184
2.441,21.484,45.41,32.715,13.184
25.391,18.066,41.016,32.715,80.078
22.461,21.484,36.621,26.367,123.535
16.113,23.438,41.016,29.297,106.934
23.926,24.902,32.227,23.438,23.438
37.109,27.832,29.785,16.113,5.859
47.852,25.879,29.297,18.066,53.711
42.969,24.414,28.32,17.578,53.223
21.973,18.555,31.738,20.02,19.531
19.531,16.602,27.832,17.09,-19.531
28.809,26.855,32.227,16.602,4.395
35.156,28.809,29.785,14.648,-0.488
22.949,27.344,20.02,20.508,29.297
14.648,27.832,21.484,22.949,3.418
15.625,25.391,15.625,22.949,-48.828
25.879,26.855,13.672,23.438,-23.926
28.32,25.879,19.043,12.695,-14.16
11.719,26.855,21.973,10.742,34.18
13.672,30.762,21.973,11.719,88.379
13.672,28.809,19.531,8.301,49.805
1.953,23.438,21.484,5.371,4.395
17.09,22.461,20.996,11.23,40.527
33.691,25.879,23.926,15.625,98.145
22.949,26.367,31.25,5.859,62.5
14.16,25.879,28.809,6.836,14.648
18.555,26.367,25.879,17.09,28.809
28.809,25.879,29.785,19.531,-38.086
31.25,27.832,30.273,23.438,-13.672
28.809,27.344,29.297,17.578,41.992
22.949,23.926,20.508,11.23,22.949
20.02,24.902,8.789,11.719,4.883
34.668,25.391,8.301,12.695,51.758
44.434,24.414,13.184,8.301,98.633
26.367,26.367,11.23,12.207,-5.371
11.719,29.297,12.207,17.09,14.648
17.578,30.762,16.602,8.301,69.336
29.297,30.762,19.531,8.789,48.828
40.039,26.855,6.348,15.137,12.207
32.715,25.391,1.465,12.695,-26.367
20.508,21.973,17.578,10.254,20.508
6.348,16.602,16.602,11.23,63.477
11.23,17.578,12.207,9.766,55.176
30.273,19.043,22.949,6.836,71.289
20.996,15.625,26.367,6.348,50.781
11.23,12.207,22.461,11.719,25.391
16.602,15.137,18.555,14.648,2.93
28.32,17.578,20.508,10.254,-1.465
33.691,14.16,28.32,14.16,21.973
11.719,10.742,32.227,14.648,9.766
8.789,11.23,30.273,15.625,0
13.672,16.602,24.414,12.695,14.16
6.348,14.648,24.902,8.301,62.5
23.926,15.137,21.973,13.672,79.102
28.809,23.926,20.508,18.066,20.508
23.926,25.391,26.855,20.508,27.344
36.621,20.996,21.973,20.996,8.301
27.344,18.555,16.113,24.414,-42.48
15.625,15.137,18.066,19.043,-11.23
20.02,16.602,16.602,12.695,20.996
31.25,25.391,18.555,16.113,-1.465
28.32,26.367,21.973,10.254,0
16.113,27.344,18.555,3.906,13.672
35.156,29.297,17.09,13.184,10.254
25.879,21.973,21.973,18.555,41.016
6.836,14.16,18.066,12.207,36.621
15.137,16.113,17.578,7.812,-41.504
24.414,22.949,29.785,12.695,-26.367
24.414,23.926,29.785,18.555,17.578
24.414,20.02,30.273,23.926,42.48
22.949,20.02,23.438,20.996,105.957
17.578,20.996,12.207,17.578,108.887
18.066,21.973,16.602,20.996,74.219
28.809,22.949,20.996,26.367,49.805
37.598,27.832,23.926,37.598,24.902
36.621,34.18,29.785,35.645,29.785
18.066,29.297,26.855,28.32,27.344
5.859,27.832,20.996,20.996,12.695
21.484,30.273,22.461,20.996,-10.742
31.738,30.273,24.902,29.785,0.488
22.949,29.297,25.879,26.855,22.949
25.391,31.738,25.879,23.438,-27.832
17.578,33.203,24.902,20.996,-44.434
9.277,28.32,27.832,13.184,26.367
30.273,24.902,23.438,13.672,20.02
29.785,28.809,21.973,8.301,17.578
16.602,33.203,24.902,-1.953,62.012
11.719,28.32,28.809,6.836,43.457
22.949,28.32,32.715,10.742,67.383
44.434,33.691,23.926,3.906,41.992
28.32,27.344,19.043,3.418,-6.348
16.113,22.461,19.531,13.672,21.973
20.02,27.832,10.254,12.695,-16.602
20.508,33.203,4.883,8.301,32.227
31.738,30.762,10.742,12.207,59.082
37.598,29.297,15.625,17.578,31.738
29.785,28.809,17.578,19.531,117.188
15.625,24.902,13.672,10.742,104.98
15.625,21.973,17.578,17.578,-8.789
32.715,20.02,26.367,18.066,13.184
38.086,22.461,27.344,8.301,49.316
26.855,25.391,26.855,11.23,6.348
21.973,23.438,22.949,15.137,-18.555
19.043,24.414,19.531,15.625,-45.41
23.438,22.461,21.973,13.184,-13.672
31.25,22.461,28.32,8.301,66.406
17.09,24.902,22.461,1.465,68.848
4.883,28.809,18.555,-1.953,18.555
2.93,33.203,20.02,-6.348,17.578
12.207,25.879,21.973,-6.836,14.16
19.043,18.066,22.949,-4.395,24.414
1.465,20.508,27.344,-4.883,1.465
-4.883,21.973,28.809,0,49.316
2.93,21.973,26.855,2.441,98.145
9.766,22.461,28.809,-7.812,60.059
12.207,22.461,26.367,-5.371,28.809
4.883,23.438,23.926,0.977,0
3.906,22.949,24.902,-3.418,-11.719
0,21.484,21.973,-2.93,17.578
13.672,26.367,18.066,1.953,26.855
35.645,26.367,17.578,1.953,44.434
19.531,24.414,22.949,3.418,51.758
7.812,25.879,29.297,6.348,37.109
12.207,28.809,28.809,11.719,20.02
20.996,29.297,25.391,5.371,-10.742
37.109,29.297,25.879,-3.418,42.48
27.832,28.809,32.227,-0.488,17.09
9.766,22.949,33.203,4.883,-27.344
3.418,21.484,24.902,8.301,55.664
14.648,23.926,16.602,0,22.949
32.227,28.32,16.113,-1.953,43.945
21.484,31.738,23.438,0.977,101.562
2.441,27.832,29.785,1.953,31.25
-3.906,26.367,22.949,0.977,-10.742
5.371,32.227,21.484,-3.906,18.555
23.926,35.156,28.32,-2.441,53.711
24.414,31.738,24.902,2.93,30.762
10.742,29.297,22.949,2.93,79.102
5.859,26.367,27.832,4.883,98.633
10.742,23.926,26.855,5.371,51.758
21.973,25.391,30.762,12.695,55.664
29.297,25.879,32.227,13.672,46.875
33.203,32.227,25.879,9.766,30.273
25.391,35.645,23.926,7.812,41.504
17.09,34.668,30.273,2.93,66.406
28.809,35.645,31.738,10.254,81.055
40.527,35.645,22.461,12.695,63.965
26.367,37.598,23.438,8.301,21.973
10.254,40.039,21.484,1.465,21.484
10.742,40.039,12.207,-4.395,30.273
25.391,41.016,10.742,7.812,28.32
39.551,41.992,21.484,20.508,23.926
31.25,40.039,31.25,19.531,60.547
16.113,35.645,33.691,15.137,43.945
6.836,35.156,34.18,7.324,10.254
20.508,39.551,32.715,3.418,46.875
36.621,42.48,37.109,4.395,2.441
25.879,43.945,47.852,6.348,-15.625
14.16,41.992,42.48,1.953,-33.203
9.766,39.551,34.18,-9.277,-12.695
18.066,38.574,33.691,-8.789,15.137
26.855,36.133,37.598,0.488,-29.297
25.391,36.133,43.457,7.812,-3.418
21.973,35.156,42.48,3.906,41.992
20.02,33.203,39.551,-5.371,51.758
25.391,31.25,31.25,-7.324,-6.348
41.504,28.809,26.855,-4.395,25.391
41.992,33.203,38.574,0,88.867
39.551,36.621,45.898,0.488,84.473
39.062,37.598,38.086,-1.953,80.078
30.273,34.668,34.668,0.977,78.125
39.551,28.32,43.457,7.324,42.48
40.527,27.832,50.293,4.883,43.457
26.855,30.762,50.293,3.906,61.035
19.043,30.762,42.48,8.789,55.664
18.066,29.785,32.715,9.766,56.641
25.879,26.855,26.855,3.418,71.777
27.832,27.832,28.32,8.301,78.613
17.578,30.273,26.855,13.672,57.617
16.602,29.785,20.996,14.16,12.207
21.484,30.273,20.508,13.184,49.316
23.926,34.668,21.973,10.254,65.918
27.832,36.621,28.32,9.766,-1.953
24.902,33.691,45.898,21.484,0.977
22.949,32.715,50.781,23.926,24.902
21.973,31.25,48.828,9.277,-19.043
26.855,31.738,48.34,15.137,4.395
35.645,33.691,45.898,20.996,14.648
29.297,33.203,42.48,16.113,-5.859
27.344,30.762,35.645,17.578,12.207
22.949,32.715,33.203,8.301,71.289
25.391,38.574,27.344,4.883,74.219
40.527,40.527,20.02,5.371,42.969
31.738,41.992,25.391,4.883,-11.23
20.02,41.504,27.832,13.672,-18.066
20.02,34.668,28.32,17.09,43.457
34.18,29.785,26.367,20.996,22.461
41.992,29.785,30.273,30.273,-6.836
33.203,25.879,37.109,30.762,-15.137
26.855,25.391,27.344,27.344,-37.598
20.996,29.297,19.043,19.043,-11.23
29.785,30.762,22.461,12.695,84.473
38.574,26.367,21.484,16.113,66.406
31.25,28.809,16.602,16.113,53.223
22.461,32.227,17.09,9.277,107.422
8.301,28.32,19.043,8.789,82.52
9.766,26.367,22.949,17.09,82.031
35.156,26.855,18.066,15.625,71.289
37.109,26.367,18.555,13.184,17.09
19.531,32.227,20.996,15.625,55.664
6.836,32.715,6.348,15.137,28.809
21.484,29.785,3.418,12.207,3.906
40.527,32.227,17.09,13.672,77.148
40.527,33.203,31.738,25.879,31.738
31.738,30.762,31.25,29.785,-30.273
29.297,30.762,31.738,20.996,-64.453
35.156,32.227,36.133,15.625,-19.531
45.898,28.32,27.832,18.066,26.367
43.457,26.855,26.855,22.461,24.414
28.32,27.832,30.273,27.344,-2.441
30.273,29.297,28.809,20.508,42.969
33.691,26.367,35.645,14.16,73.242
40.039,23.926,40.039,19.043,15.137
42.969,23.438,40.527,27.832,38.086
22.949,19.043,39.551,29.297,44.434
16.113,15.625,32.715,22.949,12.695
27.832,11.23,29.297,26.855,-12.695
50.293,17.09,34.18,26.855,0.977
58.594,25.391,41.992,31.25,32.715
40.039,23.926,44.922,33.203,0.977
24.902,23.926,36.621,16.602,11.23
28.32,21.973,28.32,14.16,0.488
47.852,21.484,20.02,23.438,31.738
54.199,24.414,16.602,26.367,52.734
40.527,23.438,29.785,28.809,8.301
28.32,23.926,27.832,26.367,25.879
25.391,25.879,29.785,25.879,65.43
37.598,20.996,38.086,25.391,50.781
55.664,17.09,33.691,32.227,17.09
42.48,19.531,33.691,37.598,45.898
19.531,20.508,29.297,26.855,90.332
22.461,25.879,27.832,24.902,97.168
39.062,31.25,30.273,30.273,64.941
46.387,29.297,28.809,29.297,15.625
35.645,29.785,32.227,30.762,22.461
27.344,28.32,31.25,29.785,51.758
20.02,23.438,21.973,16.602,3.906
23.926,20.996,20.508,8.789,-8.301
39.062,19.043,20.508,21.973,-37.109
36.133,16.602,22.949,20.02,-2.93
30.273,20.02,23.438,11.23,15.137
20.508,20.02,16.602,7.324,-58.105
17.09,17.09,20.508,8.789,-22.949
29.297,19.043,32.227,8.789,-34.668
26.367,15.625,39.551,6.348,-1.465
18.555,17.578,36.621,11.719,47.852
17.578,19.043,25.391,8.301,41.992
16.602,17.09,19.043,1.465,23.438
29.297,19.043,22.461,6.348,1.465
38.086,20.02,36.133,8.301,39.062
22.949,16.602,34.668,5.859,4.395
12.207,17.09,27.344,7.812,-3.418
20.508,17.09,28.809,4.883,40.527
35.156,11.719,33.203,7.812,55.664
38.574,12.695,45.41,19.043,35.645
26.367,16.602,44.922,16.602,-4.395
17.578,15.625,35.645,8.301,33.691
17.09,12.207,32.227,4.883,49.805
23.926,8.789,30.273,3.906,67.383
28.809,7.324,30.762,15.137,62.012
19.531,10.742,31.738,21.973,6.836
11.719,12.695,31.25,15.625,34.668
8.301,10.742,30.762,7.812,32.715
10.254,7.324,33.203,12.207,41.504
22.461,9.277,29.297,15.625,34.18
26.855,17.09,25.391,21.484,18.555
14.648,16.113,26.367,24.902,30.762
-5.859,12.695,30.273,15.137,50.781
1.953,13.184,32.227,6.836,37.109
27.832,13.672,29.785,13.184,3.906
21.973,14.16,30.273,12.207,-63.477
10.254,10.742,29.297,5.859,-36.621
10.742,8.301,24.414,10.742,17.578
20.508,6.836,19.531,8.301,5.859
39.062,6.836,22.461,12.695,50.293
37.109,7.812,25.391,24.414,31.25
19.531,8.789,22.461,24.902,-30.762
15.137,9.766,23.438,11.719,23.926
15.625,7.812,21.973,2.441,42.48
18.066,5.371,21.973,7.324,26.367
23.438,7.324,27.344,20.02,7.812
20.508,12.207,22.949,26.367,3.906
12.207,14.648,18.555,15.625,56.152
12.695,13.184,19.043,10.254,55.664
27.344,11.23,22.949,14.16,65.43
30.762,13.672,28.809,17.09,45.898
19.043,15.625,35.645,17.09,10.254
13.672,17.09,35.645,14.16,15.137
15.625,19.043,28.32,7.812,56.641
25.879,17.578,33.691,9.277,58.105
29.297,17.578,43.457,18.066,-22.461
22.949,20.02,39.551,15.137,-20.02
9.277,17.578,29.297,10.254,35.156
12.695,11.719,25.391,10.254,-4.395
35.645,14.16,24.902,12.207,-33.203
40.039,18.555,32.227,11.719,-16.602
31.738,18.555,38.574,16.602,11.23
23.926,21.973,41.016,21.973,106.445
18.066,25.391,40.039,18.555,106.445
33.691,27.832,31.25,20.996,59.082
46.875,27.832,38.086,29.785,61.035
37.109,25.879,44.922,30.762,81.543
24.902,21.484,38.574,22.949,88.867
23.438,20.02,29.785,18.066,39.062
35.645,19.043,20.508,21.973,-20.996
38.574,15.137,23.438,20.02,-15.137
24.902,18.066,30.762,16.113,4.883
18.555,24.902,30.273,14.16,82.52
9.766,27.344,25.879,9.277,26.367
10.742,25.391,28.809,7.812,-49.805
20.508,23.926,39.062,9.766,22.461
11.719,23.438,45.41,10.254,49.316
0.488,21.484,37.109,10.254,7.324
-3.418,18.066,32.227,5.371,2.441
8.301,21.973,44.922,16.113,-4.883
27.344,26.855,43.457,20.508,19.043
25.879,29.785,41.992,13.184,21.973
15.625,25.391,44.434,15.137,-20.996
17.09,23.438,38.574,17.578,-25.391
19.531,21.484,34.668,17.578,47.363
27.832,17.09,32.227,13.672,58.105
25.879,20.508,38.086,14.648,16.113
15.625,23.438,36.133,16.113,36.621
9.766,23.438,28.32,16.113,40.527
15.625,21.484,28.809,21.484,34.668
31.25,21.973,30.273,21.973,49.805
29.297,25.879,37.109,14.16,65.43
13.672,25.879,48.828,19.531,73.242
8.789,24.414,42.969,19.531,28.809
11.719,28.809,35.156,11.23,29.785
25.391,33.203,35.645,17.09,40.527
34.668,30.762,42.48,23.438,17.578
24.902,30.273,45.41,22.949,81.543
12.207,28.32,41.016,22.949,132.324
9.766,25.879,38.086,19.531,59.57
15.137,26.855,40.527,21.484,9.277
21.973,27.832,41.992,24.902,40.039
18.066,24.414,41.992,20.996,41.992
9.766,20.02,39.062,19.043,31.738
6.348,22.461,33.691,17.09,23.926
15.625,27.832,32.715,14.16,41.504
26.855,32.715,38.574,9.766,21.484
20.996,33.691,37.598,13.184,21.973
11.719,31.25,23.438,12.207,57.129
8.301,29.297,24.902,1.953,18.555
11.23,27.344,29.297,5.859,34.18
25.391,28.809,30.762,4.883,20.996
15.137,27.344,35.645,-2.93,18.555
0.977,23.438,26.367,4.395,51.758
-2.93,20.508,19.531,7.324,-32.715
0.488,17.578,35.156,3.906,5.859
14.16,13.672,45.898,-0.977,48.828
7.812,16.602,50.781,-4.395,20.508
-12.207,18.066,48.34,-10.254,-7.812
-16.602,16.113,43.945,-11.23,-48.34
-10.742,18.066,47.363,-10.742,52.734
-3.418,16.602,52.734,-7.324,115.234
-9.277,13.672,52.734,-1.953,50.293
-28.32,14.16,46.387,-11.23,41.504
-41.992,11.719,39.551,-18.555,95.215
-34.18,12.207,37.109,-20.02,77.637
-16.602,11.719,38.086,-14.648,0
-19.043,14.16,43.945,-6.348,29.297
-24.414,17.09,41.504,-2.93,58.105
-25.391,15.625,30.762,-12.695,-41.504
-19.043,17.09,25.391,-18.066,-25.391
-5.859,15.137,25.879,-11.23,12.695
1.953,12.695,37.109,-4.883,-9.277
-0.488,14.648,36.621,1.953,-28.809
-8.789,16.113,30.273,0.977,21.973
-4.395,16.113,29.297,0,60.059
9.766,19.531,31.738,1.465,20.996
18.555,24.414,31.738,4.395,40.039
17.09,24.902,28.32,8.789,36.133
-0.488,21.484,32.715,0.488,9.277
-8.789,18.555,39.062,-1.465,-1.953
7.324,18.555,33.691,0,20.508
13.672,19.531,34.18,0.488,37.598
2.441,21.484,43.457,2.441,32.227
-1.465,23.438,37.109,0,41.992
0,24.414,31.738,2.93,4.883
8.301,24.902,35.645,9.277,25.879
8.789,25.391,43.457,9.277,51.27
-1.953,25.391,41.992,11.23,87.402
-6.348,24.902,25.879,12.207,106.445
-7.324,25.879,24.902,4.883,28.809
10.742,27.344,33.203,10.254,13.184
28.809,24.902,35.645,13.184,24.414
19.043,20.996,47.852,11.719,39.551
9.766,23.926,44.434,13.672,12.207
7.812,25.879,35.645,10.254,-43.457
16.602,27.832,35.645,9.766,16.602
35.156,27.832,32.715,21.484,18.555
33.203,21.973,34.18,26.367,-2.441
20.508,18.066,32.715,13.672,15.625
12.695,16.113,28.32,5.371,18.555
16.602,13.184,29.785,3.906,16.113
30.273,16.602,36.621,8.789,-16.602
27.344,22.949,41.016,13.184,-1.953
16.113,25.879,34.18,9.277,82.031
5.859,23.926,22.461,4.883,20.996
3.906,20.02,19.043,4.883,-4.883
17.09,19.531,18.066,9.766,-9.277
17.09,20.996,23.926,16.113,-8.301
2.93,25.391,32.715,15.137,41.016
0,26.855,31.25,6.836,31.25
12.695,24.902,33.691,6.836,-8.301
28.32,25.391,41.504,9.277,28.32
20.996,22.949,43.945,12.695,57.617
-1.465,18.555,41.992,19.043,22.949
-1.953,17.09,41.016,17.09,54.199
2.441,18.066,39.551,6.836,77.148
16.602,21.973,39.062,10.742,69.824
29.297,21.973,45.41,20.996,-7.812
26.855,24.414,55.176,26.367,20.02
30.762,27.344,49.316,32.227,72.266
26.367,24.414,41.016,29.785,68.848
27.344,27.344,44.922,26.367,38.574
34.18,34.18,50.781,31.25,32.227
26.367,34.18,52.734,34.668,62.012
20.996,28.809,46.875,27.832,25.879
20.508,26.367,41.504,24.414,31.738
25.391,26.855,37.598,24.414,61.523
32.227,26.367,42.48,25.391,48.828
23.438,25.391,58.594,30.762,107.422
14.16,22.949,50.781,33.691,82.52
9.766,25.391,35.156,25.879,27.832
20.508,26.855,31.25,19.531,31.25
30.762,26.367,35.156,20.508,-19.043
19.043,28.809,35.156,25.391,2.441
13.672,32.227,31.25,24.902,37.109
10.742,30.762,31.738,21.484,51.27
15.625,27.832,24.902,15.137,39.062
26.855,29.297,30.273,16.113,8.789
19.043,25.391,42.969,23.926,5.859
17.09,23.926,38.574,27.832,35.156
17.578,25.879,28.32,15.625,53.223
16.113,24.902,20.996,9.766,21.973
28.809,24.902,28.809,18.555,-22.949
19.531,21.973,37.598,20.02,-19.043
13.672,20.02,37.109,20.996,28.32
11.23,21.484,37.109,15.625,38.574
7.324,18.066,39.551,9.766,41.992
25.879,16.602,40.527,9.766,53.711
28.32,20.02,36.621,8.301,-6.348
3.418,19.043,35.156,4.395,2.93
-6.836,19.043,34.668,3.418,58.105
7.324,22.461,32.227,0,51.758
26.367,22.461,29.297,7.812,0.488
24.902,21.484,34.668,12.695,-10.742
16.113,20.996,35.156,4.395,30.762
17.09,22.461,31.25,7.812,45.898
10.742,23.926,36.133,5.371,8.789
20.508,18.555,34.18,1.465,4.395
30.762,18.066,37.598,12.695,31.25
23.926,23.438,36.133,12.207,13.672
18.555,23.926,26.367,8.789,-12.207
12.695,23.438,20.996,12.207,-19.531
14.16,22.461,24.902,13.184,-3.906
19.531,22.949,31.25,12.695,3.906
19.531,27.344,27.832,10.254,44.434
15.625,24.414,22.461,4.395,47.852
11.719,20.508,17.578,-0.977,27.344
29.785,21.484,25.391,2.93,108.398
41.504,22.949,34.668,10.742,81.055
21.973,21.973,26.367,11.23,4.883
8.789,18.066,16.113,15.625,49.316
5.859,16.113,11.719,13.184,53.711
16.113,19.043,12.207,-0.977,-5.859
31.738,24.902,17.09,-3.418,31.25
33.203,33.691,11.719,11.23,68.359
34.18,31.738,9.277,35.645,95.703
14.16,19.043,20.02,32.227,39.062
-4.883,8.789,23.926,10.742,9.277
9.766,5.859,29.785,9.277,7.324
7.324,6.836,37.598,14.16,-16.602
-15.137,3.418,37.598,4.883,30.762
-20.02,-1.953,37.109,-5.371,37.598
-20.02,-3.418,42.48,2.441,46.875
-9.766,-0.977,45.898,11.719,30.273
-4.883,-2.93,46.875,16.113,44.434
-23.926,-5.859,51.27,16.602,73.242
-37.109,-4.395,48.828,10.254,-2.93
-33.691,-4.883,47.363,0,-10.254
-16.602,-8.301,47.363,2.441,40.039
-10.254,-4.883,49.316,0.488,54.688
-18.555,0.977,45.898,2.93,41.992
-24.414,4.883,35.156,-3.418,41.504
-28.809,5.859,36.133,-3.906,29.297
-1.465,4.883,43.457,8.301,-9.277
14.16,7.812,41.504,0,1.465
-6.348,11.719,35.645,0.977,31.738
-11.719,13.184,30.273,3.906,3.418
-8.789,12.207,31.25,0,37.109
1.465,12.695,40.039,9.766,6.348
16.602,12.207,51.27,14.648,-39.062
12.695,10.742,51.758,21.484,24.902
1.953,9.766,39.551,21.484,29.785
5.371,10.254,36.133,10.254,40.039
16.602,13.672,34.18,11.23,26.855
17.09,12.695,32.227,8.789,-40.527
0.977,14.648,32.715,9.766,-13.184
0,19.043,25.391,11.23,22.461
16.602,22.949,16.113,1.465,58.594
35.645,24.414,12.695,3.906,9.277
37.598,22.461,29.297,18.066,-30.762
20.508,20.02,44.922,28.32,36.621
14.648,18.066,33.203,25.879,106.445
14.648,17.578,24.902,24.902,59.082
30.273,18.555,26.855,31.738,26.367
50.293,20.02,31.25,39.551,25.879
43.945,18.555,27.344,40.527,11.719
34.18,17.09,20.996,36.133,27.832
29.297,15.137,18.555,24.414,39.551
28.32,13.672,20.996,20.996,53.223
37.109,12.695,35.156,36.621,57.129
39.551,14.648,36.621,45.41,1.465
39.062,18.555,28.32,46.875,2.93
37.109,20.02,23.926,44.434,0.488
40.527,21.484,22.461,48.828,1.465
61.523,22.461,29.297,63.477,17.09
75.195,24.902,35.156,56.152,-15.625
62.012,21.484,27.832,48.828,15.137
55.664,21.973,21.973,44.922,-1.953
65.43,22.949,21.973,44.922,-41.992
61.035,20.996,27.832,62.012,-10.742
55.176,21.484,40.039,61.035,26.855
53.223,16.602,37.109,47.852,2.441
51.758,15.625,27.832,43.457,4.883
53.223,20.508,20.02,46.875,15.137
43.945,26.367,16.602,28.32,46.387
24.414,29.785,28.809,10.742,104.98
9.766,29.297,36.133,27.832,88.379
20.02,27.344,32.715,20.02,43.945
32.227,28.809,24.414,4.395,3.906
35.645,27.832,24.902,6.348,54.199
33.691,23.438,30.762,12.695,9.766
28.809,21.484,32.227,19.043,-21.484
24.414,21.973,26.855,14.648,104.98
22.461,24.414,15.137,8.301,70.312
25.391,27.344,6.836,5.371,7.812
28.32,28.32,7.812,3.906,3.418
13.184,26.367,20.02,-1.953,-0.977
1.953,21.484,20.996,-6.348,53.223
-9.277,15.625,17.578,-5.859,36.133
-5.859,16.602,21.484,-13.672,9.766
9.766,17.578,28.32,-12.207,48.34
5.859,16.113,35.645,-3.418,43.457
-6.836,16.602,32.715,-8.301,34.668
-14.648,14.16,22.461,-8.301,0.977
-6.348,16.602,19.043,0,-52.734
16.113,24.902,22.949,2.93,-14.16
13.672,25.879,22.461,3.418,21.484
-7.324,24.902,20.996,1.953,-14.16
-10.254,24.902,23.926,0.977,57.129
-2.441,24.414,19.531,-9.766,46.387
2.93,22.949,24.414,-13.184,17.578
3.418,20.508,40.039,1.953,68.848
3.906,20.02,38.086,7.324,54.199
7.324,22.461,28.809,6.348,64.453
9.766,22.461,25.879,0.977,76.172
17.578,18.555,27.832,5.371,51.27
10.742,20.508,27.832,4.395,9.277
-5.371,21.484,22.949,3.418,-8.301
-4.883,19.531,28.809,0.977,31.25
14.648,18.066,31.25,-1.465,62.988
19.531,18.555,30.762,13.184,20.02
8.301,19.043,42.969,20.996,35.156
1.953,22.461,39.551,17.09,67.383
6.348,26.367,32.227,11.719,9.766
13.672,27.832,31.738,15.137,-24.414
21.484,28.809,29.785,13.184,16.602
21.973,25.879,34.668,16.602,77.637
18.066,22.949,31.738,21.484,87.891
16.602,25.391,25.879,12.695,77.637
18.555,25.879,23.926,11.23,8.301
35.645,24.902,30.762,21.973,-16.602
36.133,28.32,34.18,25.391,30.273
30.273,29.785,27.344,25.391,29.297
29.297,32.227,28.32,20.996,42.48
34.18,33.203,25.879,20.996,22.461
38.086,31.738,27.344,23.926,28.32
41.504,28.809,38.574,24.414,12.695
37.109,25.391,44.434,34.18,40.039
21.973,26.367,37.109,36.133,42.48
20.508,28.32,22.949,20.508,-40.039
22.461,24.902,20.02,16.602,14.648
37.109,23.926,24.414,23.926,54.688
34.668,24.902,25.391,30.273,42.969
27.344,24.414,24.902,31.25,53.711
20.996,21.973,26.367,30.273,16.602
26.367,21.484,29.785,26.367,53.223
41.504,22.949,37.109,22.949,74.219
34.668,22.461,44.434,33.203,30.762
29.297,23.926,35.156,22.461,29.297
19.531,27.344,27.344,15.137,52.734
23.438,32.227,23.926,17.578,84.473
36.133,31.25,29.297,23.438,41.016
36.621,32.227,33.203,33.691,29.785
41.992,37.598,24.414,21.973,80.078
35.156,34.668,13.184,2.93,53.711
17.09,31.738,7.324,4.395,-2.93
30.762,32.715,17.09,16.602,-18.066
35.645,27.344,32.227,29.785,-29.297
9.766,25.879,28.809,22.461,-18.066
2.441,32.227,21.484,1.953,24.414
11.719,29.785,19.043,0.977,52.734
32.227,29.297,21.973,16.602,-10.254
34.18,30.273,35.156,28.32,-36.133
19.531,27.344,35.645,31.738,-8.789
10.742,26.855,28.809,21.973,66.406
10.742,27.832,20.02,13.672,22.461
28.809,25.391,23.438,22.461,-14.16
41.992,25.879,33.203,22.949,27.832
26.367,23.926,29.297,11.719,35.156
17.09,20.996,20.02,13.184,60.547
26.367,26.367,11.719,12.207,22.461
39.062,29.297,20.508,9.766,11.23
43.945,28.809,27.832,20.508,27.344
30.762,26.367,25.391,25.391,20.996
18.555,22.949,22.461,17.578,20.996
12.695,20.02,21.484,15.137,31.25
26.367,20.996,26.855,15.625,51.758
43.945,21.973,35.645,22.461,27.832
36.621,21.484,34.18,22.949,18.066
21.484,15.137,25.879,19.043,-8.301
22.949,15.137,20.996,9.766,-29.297
26.855,20.02,7.324,-1.465,-18.555
31.738,23.438,7.324,13.672,-20.996
29.297,23.438,12.695,21.973,-15.625
25.879,19.531,11.719,14.648,63.477
26.855,20.508,14.16,17.578,87.891
25.391,20.996,15.137,17.578,57.617
31.25,20.02,24.414,24.414,54.688
28.809,19.043,27.832,27.832,69.824
28.809,22.461,24.414,32.715,84.961
22.949,24.902,28.32,35.645,58.105
20.02,22.949,25.879,26.367,25.391
40.039,19.531,24.414,30.762,77.637
37.109,19.043,35.645,29.785,81.543
22.461,21.973,41.504,22.949,68.359
24.902,26.855,39.062,22.949,24.902
32.227,29.297,37.109,25.879,9.766
41.016,27.832,46.387,24.902,28.809
29.785,28.32,60.059,38.086,-38.086
16.113,27.832,52.246,39.551,-31.738
17.09,29.297,40.527,18.555,26.855
27.344,33.203,25.879,14.648,-39.551
39.551,34.668,23.438,14.648,-32.227
40.039,37.109,36.621,26.855,59.57
27.344,37.109,31.738,32.227,21.484
