TP9,AF7,AF8,TP10,Right AUX
59.105,28.32,15.137,12.207,54.199
62.012,30.273,43.945,11.719,79.102
44.922,30.273,-97.656,11.23,32.715
28.809,27.832,-110.352,9.277,29.785
36.156,28.809,-73.242,11.23,50.781
57.617,36.133,-17.09,16.113,37.109
74.219,38.574,42.48,27.832,20.02
57.129,33.691,-30.273,34.18,28.32
23.949,29.785,-101.074,13.184,64.941
20.02,33.203,-92.285,9.277,40.527
41.504,33.203,-24.902,15.625,-0.488
51.758,29.785,68.359,14.16,37.598
47.852,34.18,-29.297,21.973,55.176
34.18,36.133,-122.07,17.578,59.57
33.691,34.668,-84.473,12.207,81.543
52.246,36.133,-20.996,20.508,-8.789
62.012,40.039,21.973,21.973,-58.594
51.781,36.133,-81.055,14.648,-9.277
38.574,34.668,-115.234,16.113,37.598
45.41,44.434,-64.941,21.484,18.555
59.57,41.992,21.973,23.438,21.973
68.359,37.598,62.012,21.484,69.824
63.965,48.34,-47.852,20.508,33.203
52.734,52.246,-147.949,20.02,14.16
58.594,53.223,-100.586,18.555,10.742
69.336,53.711,-47.852,21.484,28.32
74.219,49.316,10.742,25.879,12.695
73.73,47.363,24.414,30.273,41.504
62.012,42.969,-127.441,32.227,83.008
54.199,39.062,-127.93,33.203,85.938
69.336,39.551,-56.152,30.762,62.988
91.309,41.016,34.668,34.18,38.086
95.332,39.551,36.621,37.598,-5.859
71.777,39.062,-101.562,36.133,2.441
72.754,37.109,-107.422,35.156,-1.465
87.891,38.086,-22.461,31.25,1.953
103.027,41.504,39.551,32.715,6.348
102.539,34.668,7.812,34.18,3.418
80.078,38.086,-97.168,36.133,41.016
77.637,50.781,-90.82,44.434,-14.16
94.145,61.523,-24.414,50.781,15.137
107.91,66.406,32.227,58.105,87.891
107.91,60.547,51.758,56.152,77.637
96.68,62.012,-34.668,48.828,53.711
86.426,69.336,-73.242,46.875,19.043
82.379,64.453,-64.453,42.48,32.227
105.957,62.012,-4.883,43.945,65.43
113.77,69.336,81.543,49.805,25.391
98.145,70.801,-29.297,55.664,28.32
83.008,64.941,-80.078,49.316,57.129
89.844,62.012,-66.406,40.039,16.602
107.422,62.5,15.625,42.969,9.766
110.352,54.688,41.016,45.898,-4.395
88.379,46.387,-95.215,38.086,-34.668
63.477,41.504,-116.211,32.715,-6.836
64.941,37.598,-58.594,29.785,-8.789
85.449,33.203,-23.438,28.32,-36.621
88.379,29.785,41.016,30.762,-45.898
72.754,28.809,-20.02,26.855,-12.695
64.941,28.32,-128.906,21.973,25.879
60.547,21.973,-99.121,18.555,60.059
62.5,20.02,-14.16,14.648,80.566
72.754,22.461,28.32,16.602,30.762
58.105,19.043,-50.293,15.137,2.93
40.527,16.113,-156.25,11.719,-30.762
47.363,18.066,-117.188,10.742,-30.762
57.617,17.09,-49.316,6.836,22.949
69.824,16.602,20.996,10.742,-0.488
70.312,18.066,34.18,15.625,-2.93
53.223,20.996,-94.727,14.648,37.109
45.41,17.578,-109.863,14.648,19.043
57.617,17.09,-26.855,14.648,2.441
71.289,23.438,41.992,20.508,42.48
67.871,22.461,-21.484,19.043,7.324
44.434,24.414,-111.328,13.672,-14.648
34.668,31.25,-91.797,9.277,60.059
54.688,31.25,-51.758,7.812,52.734
67.871,27.344,11.719,9.766,24.414
62.012,21.484,13.184,7.324,57.617
45.41,25.391,-75.684,9.766,66.895
35.645,34.668,-102.539,12.207,38.574
40.039,32.715,-83.008,8.789,41.016
55.664,31.25,7.324,12.207,37.109
60.547,35.156,36.621,17.578,36.133
46.387,33.691,-109.863,13.184,-17.09
31.25,29.297,-94.727,0.977,-75.195
36.133,30.273,-49.805,4.395,75.195
58.594,32.227,-0.488,13.672,134.766
63.965,24.902,56.641,25.391,32.227
57.129,20.508,-97.168,35.645,-3.906
44.922,33.203,-113.77,19.043,23.438
44.434,40.039,-45.898,0.977,28.809
66.895,39.062,28.32,4.883,0.488
79.102,39.551,49.805,11.23,-5.859
67.871,39.551,-58.105,7.324,46.387
59.082,42.48,-107.91,12.207,80.566
69.824,41.504,-84.473,20.508,73.73
91.309,41.992,-15.137,27.344,52.734
92.773,43.457,63.477,28.809,48.828
74.219,38.574,-8.789,21.973,47.852
71.289,35.156,-108.398,29.297,89.844
80.566,33.691,-100.098,41.016,43.945
93.262,28.809,-30.762,40.039,6.836
95.703,28.809,61.523,40.527,45.898
89.844,30.762,9.277,43.945,56.152
75.684,29.785,-115.723,40.039,20.996
74.707,35.645,-86.426,39.062,0.488
89.355,33.691,12.695,41.504,3.906
91.309,26.855,66.406,41.504,0
90.332,26.367,-8.789,38.086,32.715
79.102,28.809,-115.234,32.227,12.695
67.871,27.344,-75.195,26.367,37.598
76.172,27.344,4.883,26.367,15.137
92.285,27.344,36.621,31.738,-41.992
91.309,24.414,-2.441,33.203,-43.945
70.312,21.484,-76.66,29.785,-34.668
66.895,22.949,-63.477,31.25,-74.219
72.266,24.902,-48.828,33.691,-42.969
77.637,23.926,38.086,32.715,28.809
74.219,24.414,73.242,31.25,17.09
58.594,26.855,-85.938,31.738,-5.859
48.828,24.902,-82.52,30.762,25.391
56.152,24.902,-26.367,30.273,36.621
84.473,25.879,50.781,38.086,27.832
84.473,23.926,26.855,40.039,10.254
61.523,21.484,-95.703,32.715,-29.297
57.129,21.973,-71.289,27.344,0.977
63.965,25.391,-25.879,25.879,24.414
81.543,22.949,53.223,31.25,48.828
89.355,21.484,123.047,38.086,107.422
75.684,27.344,-47.363,39.551,77.637
64.941,26.367,-94.238,33.203,71.289
69.824,24.414,-65.43,27.832,52.734
86.914,28.32,19.043,31.25,30.762
88.867,26.367,61.035,30.762,47.852
67.383,31.25,-37.109,31.738,43.457
50.781,28.809,-95.703,27.832,54.688
54.199,17.09,-98.633,20.02,-9.766
71.289,19.531,25.391,22.949,43.457
73.242,18.066,80.078,24.902,69.824
55.176,15.137,-12.207,22.949,41.504
47.852,19.531,-59.57,22.949,77.148
54.199,22.461,-73.73,24.414,13.672
73.242,22.461,16.602,31.25,-15.137
83.496,18.555,86.914,45.41,29.297
71.777,13.184,-19.043,51.758,44.434
47.852,25.391,-85.449,34.668,17.09
36.621,35.156,-28.809,20.02,12.207
62.5,31.738,49.805,27.832,68.848
92.773,39.062,68.359,41.504,28.809
84.961,39.062,34.18,41.992,-25.879
63.965,33.691,-22.461,35.156,-4.883
66.406,39.551,-6.836,37.598,41.992
80.078,38.574,0,36.621,60.547
97.168,32.227,102.051,37.109,31.738
100.586,32.715,127.441,43.457,-20.02
79.102,32.715,-19.043,37.598,-21.973
71.289,33.691,-1.465,35.645,46.387
83.008,36.133,58.105,33.691,67.871
93.262,35.156,136.719,36.621,5.859
90.332,28.32,84.961,39.062,31.738
72.754,29.297,-71.289,33.691,31.25
65.43,36.621,-22.949,31.25,-8.301
85.449,31.25,23.438,31.738,12.695
106.934,27.832,92.285,36.133,75.684
107.422,30.762,117.188,38.574,2.93
91.309,31.25,-20.508,36.621,-56.152
79.102,30.762,-37.598,31.25,50.781
88.867,34.668,-25.879,34.18,27.344
98.633,28.809,66.895,37.109,3.906
96.68,27.832,65.43,39.062,23.926
85.938,36.621,-37.109,39.062,51.758
65.918,34.18,-72.754,35.156,59.57
76.172,36.621,-53.223,36.621,20.508
98.145,39.551,68.848,38.574,-0.488
105.957,41.504,83.984,41.504,-20.996
102.539,43.457,-34.18,41.016,-11.23
87.402,41.992,-66.895,37.109,23.926
86.426,45.898,-60.059,34.668,-12.695
102.539,47.852,15.137,36.133,18.066
104.492,45.898,99.121,36.133,24.414
97.656,48.34,13.184,37.109,-17.578
84.961,47.852,-75.684,37.598,51.27
76.66,41.016,-55.176,29.297,55.176
90.82,33.203,51.27,32.715,-8.301
100.098,28.809,70.801,42.969,-41.016
95.215,30.273,13.672,45.41,23.926
90.332,37.598,-46.875,52.734,62.988
79.102,37.598,-26.855,43.945,36.621
80.566,34.18,-4.883,24.902,43.945
94.238,36.133,67.383,29.297,60.059
85.449,38.086,28.809,28.809,18.555
74.707,42.48,-81.055,26.855,-25.391
76.66,44.922,-40.039,30.273,0.977
95.703,47.363,50.293,32.715,14.648
106.445,47.852,109.375,37.598,34.668
101.074,48.828,14.648,36.133,23.926
89.844,48.828,-104.492,33.203,-7.324
79.102,46.387,-53.223,31.738,14.16
87.891,48.34,57.129,36.133,15.625
100.586,45.898,120.117,39.551,38.086
95.703,45.41,51.27,39.062,75.195
82.52,48.828,-76.66,37.109,-17.09
73.242,47.852,-30.762,30.762,-39.551
80.078,49.316,-20.02,31.738,-2.441
87.402,48.828,51.758,35.645,-1.465
80.078,48.828,86.914,32.227,-16.602
65.43,54.199,-42.48,32.227,-38.574
54.688,48.828,-48.828,25.879,13.184
63.965,46.875,-49.316,23.926,38.086
79.59,51.27,67.383,27.832,45.898
79.59,49.316,102.539,31.738,42.969
66.895,51.27,-38.574,31.738,41.016
53.223,50.293,-38.086,17.09,25.391
56.641,45.41,-21.484,15.625,34.668
72.266,46.387,50.293,26.855,24.902
77.148,49.316,71.777,27.832,-66.406
59.57,43.457,-34.668,25.391,-45.41
47.852,41.016,-69.336,24.902,-23.926
51.27,41.016,-38.086,27.344,-25.391
64.941,37.598,42.969,33.691,15.625
73.242,38.574,51.27,33.691,29.785
65.43,38.086,-9.277,32.715,91.797
57.617,38.574,-38.086,30.762,109.375
62.5,41.504,-60.059,31.25,-4.395
77.637,37.109,-2.93,38.086,-22.461
90.332,32.715,88.867,45.898,44.434
80.078,36.133,33.691,47.852,29.297
54.688,41.504,-56.641,38.086,-2.441
43.945,36.621,-43.945,31.738,-18.555
71.777,35.645,47.363,37.109,-4.883
100.098,41.992,107.91,40.527,19.043
96.191,42.969,3.418,36.621,20.508
81.543,44.922,-87.402,36.621,56.152
76.66,43.945,-9.766,40.527,78.613
95.703,46.875,14.16,37.598,5.371
108.398,47.363,90.332,29.297,-36.133
96.191,43.945,97.656,29.297,15.137
76.172,42.969,-38.574,30.273,71.777
66.406,41.016,-33.203,21.973,80.078
76.66,39.062,5.371,20.02,63.477
86.426,35.645,76.66,22.461,19.043
74.219,32.227,64.941,19.043,27.832
57.129,33.203,-58.105,19.531,41.016
79.59,55.176,-37.598,37.598,36.133
94.727,60.059,-9.277,41.504,66.406
83.984,47.363,68.848,30.273,-12.207
76.172,43.457,97.656,27.344,-31.738
67.383,40.039,-41.504,21.484,16.113
53.223,36.133,-46.387,19.043,-11.719
56.152,34.668,-14.16,20.508,11.23
67.383,34.668,53.223,24.414,44.922
65.918,31.738,66.406,30.762,13.672
45.898,25.879,-58.105,29.785,22.949
33.691,31.25,-83.008,28.32,37.598
41.992,38.086,-13.184,28.809,110.84
54.199,37.109,52.734,24.414,94.238
55.176,36.133,24.414,25.391,1.465
45.41,37.598,-57.617,29.297,-16.602
40.039,39.062,-34.18,19.043,27.832
45.41,36.621,-44.922,10.742,69.336
63.477,36.133,8.301,17.578,-6.836
72.754,38.574,80.566,17.578,-41.016
61.035,42.48,-30.273,11.23,-18.066
43.457,40.527,-66.895,6.348,20.996
36.133,41.016,-64.453,1.465,0
44.922,33.203,6.836,8.301,-0.488
59.082,20.996,117.676,16.602,44.434
50.293,28.809,-11.719,9.277,20.02
32.227,33.203,-114.258,-3.418,76.172
43.945,36.621,-59.082,-5.371,94.238
73.73,38.086,57.129,-0.488,58.594
86.426,39.551,85.449,3.906,4.883
67.871,41.504,-33.203,4.883,-12.207
48.34,43.457,-102.051,0.977,-3.418
39.551,39.551,-52.246,-9.277,-24.902
42.48,32.715,-8.789,-12.695,37.109
52.734,34.18,47.852,-12.695,46.387
45.41,35.156,0.488,-11.23,-16.113
24.902,32.227,-118.164,-4.395,-17.09
24.902,34.668,-94.238,-6.836,0
41.504,36.621,-54.688,-3.906,58.105
60.059,37.109,47.363,2.93,86.914
62.988,39.551,29.785,6.348,31.25
42.48,39.551,-95.703,3.906,-1.953
32.227,43.945,-68.359,6.836,37.598
49.805,46.875,-14.648,18.066,17.578
68.359,41.504,54.688,20.996,-19.043
70.801,40.527,19.531,14.648,33.203
47.852,39.551,-65.918,10.254,63.965
35.156,41.016,-78.613,12.695,83.984
50.781,46.387,-22.461,9.277,70.801
63.477,42.969,54.688,5.859,60.547
61.035,37.598,3.906,12.207,42.48
45.898,41.992,-47.363,10.742,56.641
36.133,39.062,-45.41,-4.395,60.059
38.574,36.133,-63.477,-11.23,58.105
48.828,36.621,20.996,-4.395,32.715
62.988,36.133,61.523,2.441,68.359
51.758,36.621,-90.332,7.324,35.156
36.621,35.645,-70.801,2.441,-16.113
51.27,38.574,-64.941,-1.465,39.551
65.918,41.016,-17.09,7.324,-25.391
63.965,40.527,106.445,10.742,-36.621
54.688,39.062,-37.598,6.348,-8.789
43.457,36.621,-127.441,4.395,-58.594
50.293,38.574,-42.969,4.883,-46.875
67.383,38.086,18.555,0.488,23.926
75.684,37.598,93.262,0.488,24.902
71.289,35.645,23.438,0,72.754
62.012,34.668,-104.492,-3.906,29.785
59.082,38.086,-54.688,-4.883,-4.395
65.918,35.645,35.645,-4.883,49.805
76.66,37.109,81.055,-0.488,110.352
68.848,44.922,-7.812,5.371,80.078
58.594,49.316,-74.219,5.371,42.969
55.176,46.387,-78.613,0.977,20.02
59.082,44.434,-5.371,4.395,-32.227
63.965,48.828,102.051,12.695,20.508
58.105,52.246,14.16,20.02,-13.672
45.41,46.875,-74.707,16.113,27.832
39.551,42.48,-99.121,10.742,31.738
57.129,44.434,-28.809,15.137,24.414
69.336,41.992,57.129,17.578,60.059
60.547,41.016,-8.789,11.719,30.762
44.434,41.504,-118.652,6.836,0
38.086,45.41,-96.68,5.371,33.203
46.387,44.434,-57.617,5.371,61.523
57.129,41.016,33.691,4.395,4.883
59.082,44.922,24.902,2.93,55.176
50.781,48.34,-108.887,-0.488,44.434
45.41,48.828,-57.617,2.441,26.367
45.898,45.898,-58.594,1.465,24.414
64.941,45.898,20.508,3.906,-43.457
72.754,50.293,104.004,8.301,-16.602
47.852,48.828,-54.199,5.859,65.43
37.109,46.387,-94.238,1.465,68.359
44.922,46.387,-28.809,-0.488,96.68
65.918,48.34,51.27,3.906,63.477
65.918,46.875,53.711,5.371,56.152
46.387,48.828,-77.637,-0.488,80.566
44.922,48.828,-108.398,-3.906,46.387
52.246,44.434,-44.434,-2.441,16.602
64.453,43.457,62.988,1.465,51.758
68.359,43.457,118.652,6.836,59.082
58.105,45.898,-42.969,10.254,-15.625
50.781,43.945,-98.633,13.672,10.742
50.293,39.551,-53.223,12.695,28.32
61.035,40.039,42.48,17.09,35.156
67.383,37.598,61.035,24.902,36.621
55.664,38.086,-47.852,28.32,6.836
39.062,39.062,-83.984,24.414,32.715
43.457,40.039,-70.801,20.996,45.41
64.453,41.504,-2.93,20.996,4.883
72.754,38.574,87.402,19.043,46.387
80.078,47.363,3.418,29.785,34.18
76.172,53.711,-109.375,42.48,-41.016
42.48,41.016,-46.875,17.09,-8.789
40.527,35.645,0.977,1.953,20.996
61.523,42.969,74.707,13.184,16.602
60.547,41.016,39.062,15.137,24.414
56.152,33.203,-92.773,20.508,26.855
45.898,29.297,-68.359,20.02,7.812
47.363,25.879,12.207,18.555,-44.434
63.965,29.785,76.172,21.973,-5.371
55.664,30.762,-21.973,17.578,61.523
36.621,31.738,-92.773,14.16,-0.488
32.227,34.668,-36.133,14.16,13.672
45.41,33.203,-46.387,13.672,37.598
65.43,31.25,44.434,17.578,31.25
58.594,34.668,58.594,18.555,38.574
43.945,37.598,-86.426,17.09,41.504
42.969,39.551,-62.012,13.184,37.109
46.875,45.41,-9.766,12.695,27.344
55.664,52.246,55.176,18.066,-0.977
56.641,52.734,50.293,15.137,4.395
43.945,52.734,-71.289,11.23,35.156
33.691,56.152,-89.355,11.719,-4.395
35.156,53.711,-9.766,6.348,9.766
52.246,53.223,90.332,5.859,59.57
62.5,56.152,120.605,11.719,23.926
48.34,51.27,-24.414,9.766,-28.32
38.086,49.805,-38.086,5.859,40.527
41.016,45.41,-7.812,7.324,89.844
56.641,46.387,61.523,16.602,57.617
65.43,50.781,54.688,20.508,-26.367
48.828,46.387,-25.391,13.184,-77.148
35.156,45.41,-49.316,8.301,-67.383
40.527,44.922,-22.461,7.812,-1.953
49.805,41.992,48.828,8.789,71.777
53.223,41.016,65.43,14.648,27.832
40.039,41.504,1.953,14.16,-5.859
31.738,46.875,-31.25,14.648,11.23
42.969,52.734,-23.926,19.531,51.758
50.781,46.387,8.789,11.23,75.195
56.152,41.992,93.262,12.695,39.062
44.434,42.48,19.043,20.02,-4.883
22.461,39.551,-53.711,14.648,-5.371
16.602,35.645,-23.926,11.719,26.367
34.18,36.621,42.48,16.602,79.59
54.688,41.992,66.406,19.531,50.781
49.805,42.969,-5.859,19.043,15.625
34.18,41.016,-51.27,11.23,56.641
28.809,39.062,-12.695,3.418,19.531
55.176,53.223,6.836,18.555,27.832
78.613,68.359,99.121,34.18,42.969
68.848,63.965,100.586,29.785,40.527
47.852,61.523,-48.828,20.508,59.082
35.156,58.594,-52.246,9.766,21.973
55.176,56.641,38.086,15.137,-19.531
71.289,55.664,114.746,20.02,-26.367
52.246,48.34,46.387,12.695,6.836
36.133,50.781,-62.5,18.066,21.484
29.297,49.316,-71.289,5.859,40.039
33.691,42.969,3.906,-4.395,40.039
52.246,42.48,102.051,4.395,41.992
46.875,43.945,64.941,4.883,29.785
36.621,44.434,-39.551,5.859,68.848
27.832,38.574,-45.41,1.465,90.82
22.461,35.645,-51.758,-1.465,47.363
42.48,37.109,46.387,4.883,20.02
51.758,36.621,117.676,8.301,46.387
35.645,35.645,-35.156,5.371,34.668
29.297,34.18,-66.406,2.93,38.574
39.062,43.945,-26.367,12.207,31.25
71.289,64.453,68.359,32.715,-17.578
106.445,88.379,125.488,56.152,-26.367
91.309,97.168,61.523,60.547,-19.043
50.781,70.801,-13.672,35.645,27.832
39.551,53.711,-44.434,12.695,17.578
52.734,52.246,62.012,5.371,-17.09
64.941,54.199,113.281,11.719,42.48
54.199,50.781,-33.691,10.254,68.848
27.832,44.922,-87.402,-1.953,21.973
24.414,44.434,-62.5,-3.906,29.297
32.715,40.039,0,-6.836,25.879
40.039,38.574,103.027,-3.418,16.602
38.574,48.34,-22.461,10.254,41.016
25.879,57.129,-67.871,10.742,-7.812
29.297,59.57,10.742,12.695,5.859
45.41,58.594,3.906,20.02,30.273
58.105,56.152,98.145,17.578,-2.93
45.898,49.316,64.453,10.254,37.598
37.598,51.758,-62.988,13.184,94.238
52.734,62.012,-35.156,28.809,48.34
72.266,72.266,66.895,39.551,17.578
73.73,67.383,128.418,32.715,45.41
49.316,51.27,18.066,14.648,25.391
21.973,41.016,-93.262,-3.906,-59.57
20.02,35.156,-63.965,-12.695,-48.828
31.738,34.668,-21.973,-15.137,-3.906
36.621,31.25,76.66,-15.625,-21.973
31.25,28.809,78.613,-9.277,-14.648
26.367,34.18,-75.195,-0.977,-20.508
37.109,44.434,-65.43,2.93,-48.34
44.434,45.898,29.785,-3.418,-41.504
49.805,36.133,101.562,-5.371,-58.105
52.246,35.645,48.828,-0.488,-17.578
31.738,36.621,-38.086,-4.395,75.195
17.578,35.645,-51.758,-15.625,58.594
31.25,35.156,-15.137,-14.16,14.648
40.527,30.762,53.223,-13.184,28.809
45.898,35.645,43.945,-6.348,28.809
46.875,44.434,-18.555,5.859,12.695
26.367,41.992,-21.973,-4.883,38.574
17.09,38.086,-53.711,-21.484,59.082
26.855,31.738,8.789,-25.391,24.414
43.457,36.621,110.352,-7.324,-15.625
24.902,40.039,-7.324,-2.93,-5.859
-1.465,34.668,-66.895,-9.766,23.926
10.742,35.156,-49.316,-8.301,4.883
31.25,32.715,54.199,-13.184,28.809
38.086,32.715,58.105,-14.16,34.18
24.414,30.762,-57.617,-10.254,16.113
12.695,29.785,-63.965,-13.184,10.742
20.996,28.809,-20.508,-14.16,23.926
37.598,31.25,39.551,-8.789,89.355
46.875,32.227,80.566,-6.836,56.641
35.156,28.32,-9.766,-7.812,41.992
20.996,34.18,-58.105,-10.254,106.445
22.949,34.18,-51.27,-10.254,114.258
37.598,30.273,30.762,-10.254,45.898
46.875,32.227,108.398,-10.254,36.133
34.18,30.273,8.789,-9.277,57.129
12.207,31.738,-84.473,-11.23,59.082
6.348,32.715,-66.895,-12.207,50.293
24.414,32.715,-16.602,-11.23,31.25
45.898,33.691,78.125,-5.859,0
41.992,33.691,97.656,-3.418,-6.836
25.879,35.645,-47.852,-4.395,11.719
22.949,36.621,-56.152,-3.418,27.344
35.645,37.598,51.27,-4.883,50.781
42.48,31.25,111.328,-10.254,69.824
35.156,32.715,34.18,-10.254,76.172
22.461,34.18,-55.176,-7.812,85.938
36.621,33.691,-51.758,-11.23,92.285
46.387,35.156,11.23,-14.16,40.527
47.852,31.738,76.172,-11.23,-0.977
44.922,31.738,64.941,-10.254,27.832
23.438,39.551,-36.133,-7.812,-18.555
11.719,41.016,-45.41,-4.883,-40.039
18.066,36.621,6.836,-7.812,13.672
35.156,35.645,89.355,-4.395,-30.762
40.527,36.133,76.66,3.906,-46.387
23.438,37.109,-40.527,-1.953,34.668
1.465,35.156,-41.992,-9.766,67.871
4.395,29.785,-50.781,-10.254,48.34
28.32,32.227,22.461,-3.418,60.547
41.016,37.598,33.203,1.953,94.238
20.02,35.645,-119.629,-5.371,48.828
-4.883,29.785,-100.586,-12.207,29.785
5.371,31.25,-64.453,-14.648,61.523
31.25,38.574,21.484,-19.043,53.711
57.129,49.316,71.777,-1.465,-2.93
35.156,39.551,-62.5,3.418,0.488
-9.766,24.902,-133.789,-26.367,10.742
-7.812,22.461,-78.125,-28.32,39.062
12.695,22.949,-32.715,-22.949,65.43
23.438,20.996,57.129,-20.508,28.809
7.812,17.09,31.738,-16.113,32.715
-16.602,18.555,-118.652,-21.484,-23.438
-11.719,16.113,-100.098,-19.043,-34.668
8.301,16.602,-13.184,-13.672,-31.25
16.602,17.578,98.633,-5.859,-15.137
13.184,18.555,19.043,1.465,30.273
5.371,20.02,-105.957,-0.488,-30.273
9.277,19.043,-67.871,0.488,-15.625
21.973,19.043,31.738,-0.488,7.812
30.273,20.02,95.215,-1.953,7.324
24.902,22.461,-0.977,6.348,36.133
7.324,24.414,-92.773,5.859,20.996
-0.977,22.461,-51.27,1.953,14.648
16.602,23.926,37.598,5.859,52.246
31.25,22.461,63.477,6.348,70.312
23.438,22.461,17.09,5.859,25.391
7.812,21.973,-57.129,5.859,-32.715
-2.93,19.043,-46.875,0.488,-56.152
8.301,20.996,-22.461,-1.953,-17.09
32.227,24.902,61.523,5.371,44.434
34.668,26.367,87.891,4.395,70.312
13.672,26.367,-53.711,-2.441,78.125
8.301,29.297,-52.246,0,63.965
22.461,25.879,66.895,-3.418,33.691
37.598,27.832,176.27,-4.395,11.23
45.41,33.203,111.328,1.465,-2.93
28.809,31.738,20.02,0.977,53.711
11.719,32.227,33.691,-4.395,75.195
22.949,34.668,49.805,-9.277,67.871
38.086,35.156,144.043,-7.812,109.375
41.016,32.227,198.73,-3.906,72.266
27.832,30.762,50.781,-3.906,62.988
12.207,32.227,-1.953,-6.348,69.336
15.625,31.738,35.156,-5.859,72.754
29.785,33.691,107.422,0.977,30.762
33.691,34.18,123.535,0.488,-41.504
23.438,31.738,44.922,-3.906,-14.16
14.16,32.227,-16.602,0,11.719
18.555,37.598,0.488,1.465,-28.32
29.785,37.598,120.117,0,87.891
28.809,31.738,171.875,4.883,92.773
22.461,34.18,66.406,8.789,-29.297
20.996,39.551,6.836,12.207,34.18
23.438,35.156,5.859,10.742,76.172
35.645,31.738,72.754,6.348,32.715
47.852,32.227,137.207,10.742,37.109
46.875,32.227,24.414,12.695,9.766
29.297,33.691,-43.945,4.883,-30.273
26.855,34.18,1.953,0,29.297
47.363,33.203,54.199,7.324,62.012
52.734,33.691,96.68,11.23,36.133
39.062,34.18,51.27,8.789,55.664
20.996,35.645,-16.113,7.812,58.105
9.277,37.109,1.953,3.906,47.852
20.996,33.691,-3.418,4.395,2.93
37.109,33.691,100.586,1.953,22.949
35.645,39.551,97.168,1.465,60.059
18.555,41.016,-36.133,-1.465,28.809
7.812,37.598,-32.227,-11.23,41.992
21.973,37.109,41.504,-4.395,41.992
42.48,33.691,118.164,2.93,21.973
35.156,33.691,54.199,0,37.598
12.695,38.086,-60.547,1.953,20.508
12.695,38.574,-6.836,1.953,15.137
28.32,36.133,21.484,1.953,58.105
43.457,36.133,84.473,5.371,48.34
49.316,41.504,135.254,10.254,11.719
37.109,41.504,-7.812,9.766,6.836
27.832,42.969,-50.781,8.301,-21.484
37.598,42.48,32.227,11.23,-19.531
56.152,44.434,124.023,9.277,-4.883
63.965,51.758,83.008,15.137,14.648
43.945,50.293,-26.855,14.16,40.527
22.461,47.363,-59.57,4.883,29.297
23.438,43.945,-22.949,0.977,65.918
42.969,44.922,84.473,3.418,65.918
55.664,47.852,110.84,6.348,29.297
52.734,48.828,-11.23,7.324,94.727
41.992,50.781,-69.824,13.672,87.891
19.531,44.434,-48.828,7.812,23.438
18.066,40.527,50.293,-8.789,40.527
32.715,41.504,97.168,-0.488,-9.277
30.273,43.945,-16.113,12.695,-38.086
28.32,48.34,-67.871,7.812,-17.09
39.062,46.875,-38.574,2.93,-23.438
55.176,43.945,43.945,1.465,-53.711
68.848,55.664,101.562,8.301,1.465
59.57,58.105,25.879,10.742,41.504
38.086,54.688,-18.555,4.395,56.641
44.922,59.57,-12.207,3.418,72.266
59.57,61.523,-18.066,5.859,4.395
61.035,55.176,115.234,8.301,11.23
51.758,53.223,88.867,7.812,37.598
32.715,47.363,-59.082,0,0
32.715,41.016,-22.461,-4.883,-2.441
50.293,40.527,46.875,-5.371,-12.695
61.035,44.434,121.094,2.441,1.465
59.082,48.34,41.992,9.277,48.34
33.691,46.387,-66.406,1.953,25.879
14.648,43.457,-36.621,-1.465,62.5
23.438,45.41,57.129,0,48.34
29.785,42.48,141.602,3.906,6.348
26.367,44.434,62.988,12.695,44.922
10.742,47.363,-40.039,9.766,44.434
4.395,41.016,-39.551,2.441,74.707
16.113,38.574,4.883,3.906,46.875
29.785,39.062,109.375,1.953,43.457
28.32,41.504,75.684,4.883,66.895
12.695,38.086,-37.598,2.93,31.25
15.137,42.48,-41.016,1.953,25.879
35.156,51.27,-34.18,10.254,13.184
48.34,47.363,28.32,7.812,32.715
48.34,42.969,84.473,6.348,55.664
28.32,38.574,-9.766,4.883,19.531
22.461,42.969,-41.504,1.953,-2.441
33.203,45.898,-7.812,-1.953,-1.953
42.48,40.527,71.777,-4.883,-33.203
49.316,41.504,87.402,-3.906,-1.465
41.504,46.387,-25.391,-8.301,31.738
20.508,41.504,-54.688,-13.184,44.922
14.648,36.621,-41.992,-13.184,77.148
35.645,38.574,27.344,-11.719,-2.93
24.902,34.668,64.453,-9.766,-27.832
12.207,34.18,-11.719,-9.277,18.555
10.254,35.645,-33.691,-13.184,29.785
8.789,35.645,-47.852,-17.578,41.016
27.344,35.645,-5.859,-17.09,18.066
41.016,34.18,99.609,-5.859,-39.551
30.762,39.062,41.016,-2.441,-44.434
3.906,42.48,-40.527,-16.602,46.875
8.789,39.551,-48.828,-22.461,92.285
35.645,42.969,16.602,-18.066,13.672
49.805,45.41,104.98,-13.184,-12.695
38.574,43.457,-5.859,-14.16,41.016
17.578,41.504,-102.539,-16.602,23.926
27.344,36.621,-43.457,-16.113,42.48
42.48,38.574,56.152,-15.625,53.711
47.363,45.41,112.305,-14.16,0.977
41.016,43.945,14.648,-14.16,-30.273
25.391,41.504,-61.523,-15.137,15.625
30.273,39.551,-58.105,-15.137,12.695
40.039,42.969,-29.297,-14.648,-4.395
49.316,44.434,87.891,-14.648,83.496
43.457,42.969,50.781,-11.719,29.297
21.484,40.527,-64.941,-15.625,-4.883
11.23,39.551,-61.035,-18.066,48.828
20.996,41.504,-48.828,-18.066,35.156
36.621,37.109,62.5,-16.602,35.645
39.551,39.551,72.266,-11.719,4.883
25.391,42.969,-41.504,-12.695,27.344
17.578,40.039,-51.758,-16.602,86.426
31.25,44.922,-31.25,-18.066,59.082
46.387,46.875,67.383,-7.812,33.203
55.176,45.898,66.895,0.488,22.461
40.527,46.387,-44.434,-5.371,58.105
27.832,40.527,-100.098,-8.301,62.012
37.109,39.062,-39.062,-5.859,32.715
52.246,44.922,77.148,-6.836,41.504
57.617,49.316,38.086,0,50.781
43.945,49.316,-39.062,0.488,51.758
27.832,45.898,-22.949,-4.883,78.125
27.344,44.922,-52.246,-4.395,69.824
41.992,45.898,1.465,-4.395,16.602
42.969,46.387,125,-4.883,11.23
27.832,48.34,-7.812,-5.859,15.625
10.254,48.34,-80.078,-10.742,0
14.648,46.875,-22.461,-8.789,66.895
40.039,44.922,47.363,-3.906,99.609
52.246,45.898,88.379,1.465,41.504
40.039,44.922,-9.766,5.859,58.105
25.391,41.992,-99.121,3.906,73.242
30.273,41.504,-55.176,4.395,27.344
41.016,41.992,32.227,3.906,-13.184
47.852,47.363,129.883,5.371,34.668
34.668,44.434,35.156,4.883,37.109
12.207,35.645,-66.406,-4.395,29.297
14.648,40.039,-40.039,-5.371,49.805
30.273,45.898,32.715,0,25.391
40.527,50.293,96.68,-3.906,9.766
37.598,53.223,17.578,-9.766,59.57
22.461,49.316,-82.52,-10.254,8.789
18.066,49.316,-66.406,-12.207,-36.133
32.715,48.34,20.508,-13.184,28.809
45.898,47.852,89.844,-11.23,40.527
40.039,47.852,19.043,-10.742,15.625
26.855,45.41,-83.984,-11.719,-10.742
13.672,41.992,-55.664,-11.23,-65.43
18.555,39.062,-25.391,-14.16,-38.574
30.273,39.062,72.754,-14.648,11.719
20.508,40.527,70.801,-9.766,-6.836
1.953,38.574,-48.828,-7.324,41.504
-2.93,34.668,-71.289,-8.789,61.035
12.207,29.785,-3.418,-8.301,21.973
31.25,23.926,75.684,-2.441,46.387
35.645,26.367,-7.812,0,48.828
21.484,27.832,-70.312,-3.418,2.93
13.184,26.855,-30.762,-8.789,-0.977
25.391,32.227,-32.715,-12.695,-41.504
34.668,31.25,64.453,-12.207,-21.484
35.645,31.25,78.125,-10.254,75.684
24.414,33.691,-53.223,-13.672,83.008
12.695,35.645,-76.66,-18.066,47.852
22.949,38.086,-58.105,-15.625,46.875
41.504,37.109,26.367,-16.602,61.035
37.598,37.598,105.957,-12.695,14.16
20.996,37.109,-42.969,-8.301,7.324
12.207,38.086,-92.773,-13.184,55.176
12.695,38.574,-53.223,-10.742,90.332
25.391,37.598,14.648,-11.719,50.781
38.086,35.645,122.559,-12.207,63.965
23.438,29.785,-12.695,-8.301,64.453
0.977,29.297,-94.727,-10.742,28.32
10.254,34.18,-55.664,-10.254,11.23
30.762,38.574,14.648,-6.836,14.648
39.062,42.48,53.711,-4.395,15.137
35.645,47.363,-8.301,-2.441,-20.508
18.555,45.898,-66.406,-5.371,24.902
15.137,40.039,-73.73,-10.742,45.41
31.25,36.621,-26.367,-11.23,-21.973
38.086,35.645,62.988,-5.859,-24.902
31.25,35.645,22.949,-5.859,-4.883
18.066,35.156,-74.219,-10.254,28.809
9.277,27.832,-62.988,-13.672,38.574
20.508,23.438,-33.203,-14.648,15.625
37.598,24.902,73.242,-13.184,21.973
34.18,21.484,57.129,-11.23,20.996
16.113,19.043,-71.777,-11.719,33.691
6.836,20.996,-74.219,-13.672,25.879
15.137,19.043,5.371,-14.648,-10.742
30.762,18.555,87.891,-9.277,-44.434
32.715,19.043,18.066,-5.859,-2.441
19.531,20.996,-64.941,-6.348,24.414
8.789,21.973,-38.086,-15.137,-10.742
20.996,22.461,-42.48,-20.02,-10.254
36.621,24.902,42.48,-11.23,-22.949
39.551,26.855,90.332,-5.859,-52.246
22.949,25.391,-43.945,-9.766,17.09
9.766,23.926,-83.984,-11.23,39.062
15.625,23.926,-18.555,-7.812,26.367
37.598,26.367,81.543,-5.371,79.102
48.828,29.785,41.016,-4.883,24.902
32.227,30.273,-71.777,-2.441,-9.766
21.484,34.18,-99.121,-1.953,22.949
28.32,32.715,-63.477,0.488,6.348
46.387,29.785,49.316,1.953,41.016
56.152,33.691,114.746,1.465,51.758
34.668,29.785,-23.926,0,83.008
18.555,29.297,-97.168,-4.883,74.707
31.25,31.25,-72.754,-5.859,24.902
45.898,30.762,28.32,0.977,40.527
52.734,31.25,63.477,6.836,6.836
44.922,27.832,-23.926,1.953,37.598
33.691,28.32,-84.961,-1.465,111.816
37.109,27.832,-96.191,-3.906,13.184
55.176,29.785,-9.766,-3.906,-38.574
56.152,33.691,71.289,-3.418,11.23
37.109,28.32,8.789,-7.324,54.688
25.879,27.344,-82.031,-11.23,62.012
27.344,28.32,-71.289,-16.602,24.414
40.527,28.809,14.648,-15.625,-6.836
51.758,29.297,93.262,-12.207,20.02
37.598,28.32,-16.113,-10.254,46.387
17.09,29.785,-87.891,-10.742,52.734
23.438,33.691,-67.871,-6.836,61.523
36.133,35.156,-24.902,-2.93,38.086
48.828,33.691,67.871,-1.465,42.48
48.34,35.645,-15.625,2.93,-12.207
27.832,40.039,-67.383,-3.418,-23.926
18.066,34.18,-19.531,-8.789,28.809
26.855,32.715,-47.852,-8.301,22.949
43.457,33.691,55.664,-6.836,21.973
46.387,26.855,48.828,0.488,44.434
20.996,29.297,-106.934,-0.488,-25.879
17.09,38.574,-59.082,-2.93,-61.523
39.062,38.574,18.066,-2.441,-26.367
57.129,35.156,70.312,-1.953,-32.715
57.617,32.227,33.203,-1.953,-8.789
38.086,35.645,-74.219,-3.906,20.508
28.32,42.969,-92.773,-5.859,24.902
44.434,42.48,-50.781,-3.906,33.691
54.199,39.551,59.57,-5.371,24.902
45.898,37.109,102.051,-5.859,-9.766
23.438,32.227,-29.297,-13.184,50.293
8.301,31.738,-91.797,-24.902,52.246
18.555,33.691,-43.945,-18.555,-47.852
32.227,33.203,68.848,-11.23,23.438
30.762,33.691,45.41,-10.742,29.785
11.23,38.086,-30.273,-8.301,-40.527
-8.789,38.086,-49.316,-10.742,30.762
-3.418,34.18,-62.012,-9.277,37.598
23.926,30.762,18.066,-4.883,29.785
35.645,32.715,95.703,-3.906,96.68
8.789,32.715,-15.625,-4.883,62.988
-11.719,30.273,-88.867,-8.301,-19.531
-1.953,32.715,-69.824,-5.859,-18.066
10.254,36.133,20.508,-5.859,49.805
14.16,33.691,83.496,-11.23,47.852
7.812,29.785,-23.926,-10.742,50.781
-10.254,26.855,-80.566,-13.184,62.012
-7.324,27.832,-82.031,-15.625,11.719
14.16,32.227,-4.395,-16.113,-21.484
26.855,33.691,115.723,-13.672,42.48
19.043,29.785,-28.32,-6.348,38.574
2.93,27.832,-89.355,-9.277,-29.785
9.766,29.785,-23.438,-11.23,2.441
25.879,30.762,-24.414,-7.324,9.766
36.133,32.227,89.355,-3.906,-5.371
32.715,29.297,69.824,-0.977,37.109
15.137,27.344,-78.613,-4.883,50.293
13.184,32.227,-62.5,-9.277,52.246
28.32,37.109,53.711,-3.906,50.293
32.227,36.133,102.051,-0.488,-1.953
20.996,34.18,26.855,-4.883,6.836
15.137,38.086,-100.098,-5.859,-30.273
9.277,40.527,-109.375,-8.789,-61.523
12.695,37.598,26.855,-10.742,17.09
27.832,33.203,116.699,-7.812,21.973
25.391,30.762,55.176,-5.371,68.359
13.184,33.691,-71.777,-5.859,46.387
7.324,34.668,-78.125,-8.789,-15.137
13.184,33.203,-3.418,-9.277,44.434
35.156,33.203,75.195,-4.883,64.453
37.598,32.715,43.457,-3.906,-17.09
7.324,30.273,-68.848,-9.766,-52.246
-2.441,24.902,-63.965,-16.602,-19.531
19.043,26.855,-63.965,-17.09,1.953
30.762,29.297,-0.488,-17.578,-45.898
30.762,25.879,104.004,-17.09,-31.25
24.414,28.809,-17.578,-14.648,-3.906
12.695,32.227,-70.312,-18.066,-25.391
23.438,35.645,-40.039,-18.066,18.555
42.48,39.062,34.18,-11.23,58.594
43.457,37.598,99.609,-4.395,23.926
33.203,39.551,-21.484,-6.836,70.801
16.602,40.039,-95.215,-16.602,63.965
12.695,38.574,-75.195,-18.555,27.832
20.508,40.527,14.648,-16.113,-7.324
26.855,41.016,69.824,-15.625,8.301
21.484,35.645,-50.293,-10.254,63.965
7.812,33.691,-58.594,-1.465,43.945
9.277,52.246,-33.691,-14.648,37.598
17.09,54.688,-37.109,-34.668,31.738
20.996,45.898,91.309,-24.902,-9.766
22.461,50.781,32.715,-14.648,12.207
12.695,48.34,-89.844,-15.137,20.996
9.277,37.598,-53.711,-13.184,19.531
30.762,31.738,12.695,-11.719,30.273
41.016,28.32,62.988,-9.277,30.762
39.062,29.785,-7.324,-6.348,29.785
29.297,29.785,-76.66,-6.348,58.594
19.043,30.762,-92.773,-6.836,72.754
28.809,31.738,-41.992,-13.184,41.504
41.504,27.832,58.594,-11.719,41.016
41.504,31.25,29.785,0.488,1.465
19.531,32.227,-73.242,-1.465,46.875
12.207,31.25,-80.078,-5.371,88.379
26.855,30.273,-12.695,-3.418,30.273
34.668,27.832,66.406,-8.301,29.297
34.668,32.227,-12.695,-3.418,17.09
21.484,36.133,-76.66,0.977,42.969
13.184,31.738,-71.777,-4.883,52.734
20.508,32.715,-22.949,-4.395,21.484
38.574,33.203,67.871,2.93,70.801
46.875,31.25,10.254,7.324,65.43
28.809,32.715,-69.336,8.789,15.137
13.184,31.25,-33.691,8.301,4.883
15.625,31.738,-60.059,8.789,12.695
34.18,35.156,23.926,8.789,8.789
45.898,35.156,112.793,13.184,17.578
34.668,38.086,-52.246,6.348,22.949
20.996,40.039,-100.586,2.441,4.395
26.855,43.457,-51.27,2.441,28.809
44.922,45.898,30.273,-4.395,14.648
43.945,41.992,47.363,-3.906,17.09
21.484,42.969,-63.965,-5.371,25.391
3.418,45.898,-82.52,-5.859,0.488
9.277,48.34,-52.246,-5.371,-2.93
31.738,44.922,9.277,-3.906,-0.977
40.039,41.992,73.242,-3.418,13.672
23.926,43.945,-47.363,-1.953,38.086
2.93,41.016,-119.141,-4.883,-43.945
2.93,39.551,-87.402,-10.742,-40.039
25.391,38.574,-18.555,-9.766,4.395
37.598,37.109,87.891,-8.301,-18.066
24.902,37.109,-15.137,-9.766,-7.324
8.301,36.133,-123.535,-14.16,-3.418
13.672,35.645,-113.77,-19.043,7.812
33.203,34.18,-43.457,-17.09,7.812
42.969,36.621,74.219,-6.348,-25.879
35.645,38.086,28.809,0,5.371
31.738,33.691,-101.562,1.465,23.926
35.645,34.668,-103.027,2.441,-29.297
47.852,35.645,-10.742,-0.488,29.785
64.453,34.668,50.781,0,2.93
61.523,34.668,-17.578,2.441,-10.254
40.527,29.785,-119.141,-3.906,-12.695
28.809,26.367,-96.68,-7.324,-31.738
38.574,27.832,-3.418,-6.348,52.734
56.152,30.762,41.504,-0.488,121.582
51.758,30.273,-15.137,0,67.871
29.785,30.762,-72.266,-2.441,32.715
21.484,29.785,-100.098,-0.488,47.852
39.062,29.297,-113.77,-2.93,-18.555
56.152,30.762,28.32,-5.371,-41.016
50.781,26.855,68.359,-3.906,-38.574
37.109,21.973,-76.66,-2.93,-3.906
35.645,26.367,-109.375,-5.859,57.129
51.27,29.297,-73.242,-3.418,1.953
61.523,27.832,42.48,-4.395,-33.691
58.105,28.32,24.902,-2.441,15.137
41.504,27.832,-111.328,11.23,6.348
24.902,31.738,-92.285,5.859,18.066
28.32,34.18,-59.57,1.953,34.18
43.457,28.809,16.113,1.465,8.789
54.199,24.902,60.059,-2.93,31.738
40.527,23.926,-44.434,0.977,99.121
13.184,18.066,-117.188,1.465,128.906
8.301,18.066,-115.234,-0.977,63.965
29.785,26.855,21.973,9.277,40.527
35.645,26.367,52.246,12.207,13.184
20.508,24.902,-46.387,2.93,20.996
11.23,32.715,-111.328,-6.836,77.148
15.137,35.645,-121.094,-8.301,44.922
28.32,34.668,19.043,1.465,19.043
46.387,33.203,86.426,5.371,-0.488
34.18,37.109,-43.457,0.488,45.41
1.465,40.039,-134.277,-7.324,11.23
-0.977,39.062,-116.211,-10.254,-48.828
19.043,35.156,-5.371,-3.418,-30.273
30.273,34.18,100.098,-0.488,44.922
20.996,38.086,-66.895,-6.348,45.41
1.953,37.109,-131.836,-16.113,11.719
1.465,37.109,-65.918,-17.578,22.949
19.531,38.574,-66.895,-12.207,41.016
37.109,39.062,22.461,-13.184,86.426
31.25,40.039,15.625,-13.672,79.59
3.906,38.574,-84.961,-11.23,46.875
-3.906,38.574,-99.121,-14.16,46.875
12.695,39.062,-22.461,-10.254,43.945
34.668,43.457,53.223,-8.301,-15.625
32.715,44.434,-3.906,-7.812,-15.137
14.16,39.551,-101.562,-7.324,16.602
7.324,41.504,-91.797,-12.207,48.34
18.555,45.41,-85.938,-10.254,65.43
32.227,42.969,18.555,-3.906,52.246
32.227,40.527,35.645,-2.441,36.621
14.16,38.574,-93.75,-7.324,10.742
-6.348,37.598,-89.844,-4.883,58.594
4.395,35.156,-41.992,-8.301,81.055
33.203,34.668,63.477,-9.277,107.422
40.527,40.527,13.184,-4.395,25.879
22.461,41.016,-80.566,-10.254,-5.859
0.488,35.156,-101.562,-9.766,62.988
11.23,35.156,-111.816,-6.348,-13.184
36.133,38.086,13.184,-9.277,-34.18
47.363,36.133,45.898,-6.836,21.973
37.598,34.18,-96.191,-9.277,6.348
11.23,37.109,-126.465,-17.09,-11.23
11.719,36.133,-92.773,-13.672,41.504
34.18,33.691,-48.34,-13.184,53.711
36.133,36.133,64.453,-14.648,58.105
21.484,34.668,-23.926,-8.301,25.391
16.602,38.086,-119.141,-9.766,-3.906
21.973,40.039,-94.727,-11.23,61.523
32.715,32.715,-25.879,-12.695,34.668
50.293,30.762,36.133,-5.859,-13.184
40.039,34.668,-62.5,0.488,-33.691
17.578,34.668,-113.77,-4.395,15.137
17.578,31.25,-121.582,-13.184,8.301
37.598,32.715,-22.949,-10.254,21.484
49.805,31.738,31.25,1.465,65.43
40.527,29.297,-51.27,1.465,53.223
24.902,29.785,-87.402,-1.465,91.797
23.438,31.738,-83.984,-3.906,58.105
36.133,33.203,-69.336,-4.395,48.828
45.898,34.18,31.25,-4.395,26.855
33.203,29.297,9.766,-8.789,0.488
17.09,29.785,-108.887,-3.906,4.883
16.602,38.574,-94.727,0,21.973
33.691,38.086,-6.836,0,57.129
53.711,32.715,56.152,7.324,4.395
35.156,33.691,-14.16,7.812,-25.391
10.742,34.668,-126.465,1.953,-9.766
6.836,30.273,-74.707,-0.977,-20.996
14.648,26.855,-41.992,0.977,2.93
26.367,29.785,24.414,1.953,-6.348
29.785,35.645,71.777,-1.953,-32.715
18.555,32.715,-68.848,-0.977,9.277
12.695,31.25,-145.02,1.953,11.719
18.555,29.297,-50.293,1.465,44.922
32.227,25.879,63.477,-4.883,35.156
35.645,24.902,2.93,-3.906,-21.973
17.578,25.879,-83.008,0.977,20.996
5.371,31.25,-116.211,-5.859,36.621
13.184,31.25,-105.469,-5.859,36.621
31.25,24.902,19.043,-8.789,49.316
40.527,29.297,75.684,-8.301,15.137
27.832,25.391,-70.312,-4.395,45.898
10.742,18.555,-118.652,-11.23,40.039
15.137,21.973,-94.727,-11.719,-23.438
24.902,22.461,12.207,-4.883,6.348
31.738,25.391,51.758,0.488,52.734
31.25,28.32,-76.66,0.488,46.387
21.973,27.832,-120.605,-3.418,41.992
18.066,29.297,-62.988,-5.859,57.617
29.785,28.32,-0.977,-4.395,72.754
37.109,31.738,7.324,1.953,10.254
21.484,36.621,-50.293,-3.906,-31.25
20.02,40.527,-77.148,-1.465,-10.254
21.484,37.598,-92.285,0,33.691
20.996,31.738,-58.105,-7.812,9.277
38.086,32.715,70.801,-1.953,2.93
35.156,35.645,-6.836,7.324,48.34
5.859,34.668,-120.117,3.418,41.992
7.324,35.156,-104.492,-7.324,11.719
31.738,38.086,-11.719,-4.395,39.062
45.898,35.156,52.734,-1.953,15.137
41.992,36.621,-64.453,-2.93,-36.133
19.043,35.645,-122.07,-8.789,40.527
16.602,33.691,-87.891,-13.184,20.996
50.293,40.039,-34.668,-3.418,-23.438
61.523,49.805,78.125,1.465,46.875
53.223,54.199,45.898,3.906,20.996
39.551,45.41,-65.918,14.16,24.902
27.344,39.551,-100.098,10.742,22.949
28.809,47.363,-18.066,-4.883,-5.859
34.668,52.734,84.961,-10.742,19.043
33.691,41.992,4.395,-10.742,-1.953
11.719,37.109,-74.219,-20.02,20.996
-3.418,42.48,-103.516,-22.949,22.949
4.883,43.945,-56.641,-25.879,58.105
18.555,38.574,47.852,-27.344,96.191
22.461,39.551,30.762,-18.066,38.574
5.371,43.457,-63.477,-14.16,29.297
2.441,41.992,-79.102,-13.672,26.367
19.531,38.086,-80.566,-15.137,83.008
36.133,34.18,-4.883,-10.254,50.781
41.992,36.133,76.172,-7.812,-0.977
20.996,38.086,-54.199,-8.789,12.695
11.23,43.457,-99.609,-8.301,9.766
24.414,43.945,-50.781,-8.301,45.41
34.18,39.551,22.461,-10.254,64.941
36.133,37.109,7.324,-7.324,38.086
27.832,39.062,-33.691,-3.418,81.543
20.996,44.434,-64.453,-3.418,86.914
22.461,43.457,-112.305,-8.789,16.602
33.203,40.527,-21.484,-7.812,41.504
40.527,42.48,95.215,-4.883,35.156
25.391,43.945,-27.832,-13.672,3.906
4.395,40.039,-105.957,-17.578,27.832
10.742,41.016,-99.609,-8.789,27.344
28.32,42.48,-16.113,-7.812,-18.555
41.016,42.969,63.965,-5.859,-24.902
26.367,43.457,-49.316,-5.371,11.23
4.883,39.551,-145.996,-6.836,37.109
13.184,41.992,-111.816,-7.324,38.086
29.785,46.387,0.488,-5.859,10.742
44.922,47.363,80.566,1.953,26.367
36.621,53.223,-23.926,3.906,50.293
22.461,53.223,-124.512,-0.488,40.039
25.391,46.387,-120.605,-5.371,9.277
30.273,43.945,-20.996,-10.742,-22.461
39.062,43.945,85.938,-8.789,9.766
27.832,40.527,-13.184,-9.766,22.461
2.93,41.504,-109.375,-16.113,33.691
5.859,44.434,-95.703,-18.555,35.645
15.625,46.387,-93.75,-19.043,-1.465
20.996,43.457,17.578,-15.625,36.621
31.25,39.551,82.52,-13.672,54.688
29.297,41.016,-68.848,-11.719,28.809
20.996,38.574,-106.445,-12.695,39.551
33.691,33.203,-11.23,-11.719,85.938
57.617,31.738,54.199,-9.277,64.941
61.523,35.156,-5.859,-6.348,32.227
42.48,33.203,-96.68,-1.465,18.066
29.785,28.809,-133.789,-11.23,13.672
41.992,34.668,-51.758,-10.254,6.836
52.246,42.48,58.594,5.859,0
45.898,40.527,-2.441,4.395,15.137
26.855,37.109,-64.941,-5.859,61.035
9.277,42.48,-73.242,-8.301,39.062
13.184,40.527,-114.258,-7.812,24.902
28.809,35.156,-22.461,-5.371,-4.395
44.922,35.645,83.984,4.395,-34.668
40.527,41.016,-60.059,2.93,6.348
23.438,43.457,-121.582,-2.93,10.254
22.461,35.645,-103.027,-3.418,-38.574
28.32,35.156,6.348,-4.395,-15.625
35.156,38.574,49.316,-2.441,20.02
27.832,38.086,-59.082,1.953,86.914
10.742,38.574,-144.043,0.488,126.465
7.812,41.504,-133.301,-6.836,19.043
18.066,45.41,13.672,-5.859,-4.395
34.668,48.828,73.242,3.418,23.438
32.715,46.875,-44.922,4.395,71.777
13.672,44.434,-114.258,-4.395,101.562
11.23,45.41,-131.836,-6.836,66.406
23.438,47.852,-66.406,-4.395,-11.23
31.738,45.898,79.102,-5.371,2.93
39.551,46.875,-17.09,-4.395,34.18
26.855,46.875,-121.094,-1.465,13.184
10.742,47.852,-102.539,-6.836,19.043
28.32,47.363,-42.969,1.465,8.789
51.758,47.363,53.711,14.648,2.93
50.293,48.828,-19.531,2.441,2.441
27.344,42.48,-116.211,-8.301,11.719
8.789,44.434,-71.777,-5.859,13.184
31.738,48.828,-74.219,5.859,-3.906
54.199,43.457,32.227,10.254,24.414
41.992,39.551,50.781,7.324,53.711
27.344,41.504,-106.445,0,50.293
22.461,41.504,-121.094,-2.441,23.438
28.809,39.062,16.602,-0.977,11.719
42.48,38.574,126.465,-1.953,35.156
48.828,40.039,52.246,5.371,60.547
31.25,36.133,-15.625,-0.488,61.035
20.02,34.668,-20.508,-11.23,12.695
28.809,40.039,5.371,-8.789,-25.879
41.016,36.621,110.84,-7.812,0
38.086,35.156,88.867,-3.906,35.156
29.785,39.062,-7.324,-0.488,21.484
18.066,38.574,-43.945,-11.719,9.766
20.02,37.109,-29.297,-8.301,32.227
41.504,38.574,67.871,4.883,91.797
34.18,36.621,74.707,3.418,34.668
14.648,39.062,-43.457,-2.441,7.812
5.859,41.992,-92.285,-4.883,44.434
18.066,42.48,-56.641,-9.766,60.547
39.551,41.016,-22.949,-9.277,16.602
41.016,39.062,84.961,-1.953,12.207
34.668,39.062,4.395,5.371,12.695
20.508,34.668,-98.145,8.789,-18.066
16.602,35.156,-93.262,7.812,6.348
44.434,41.016,-11.23,11.719,16.113
59.57,39.062,77.148,16.602,36.621
46.875,33.691,-34.18,12.207,40.039
29.297,33.691,-94.727,6.836,55.664
25.391,35.156,-105.469,2.441,33.203
43.457,30.762,-36.621,4.395,-10.254
58.594,28.32,66.895,9.766,19.531
44.922,35.156,-0.488,11.719,37.109
17.09,35.156,-92.773,4.395,61.523
9.277,25.879,-121.094,-5.371,13.184
43.945,25.879,-83.496,12.695,-58.594
69.336,25.391,79.102,28.32,18.066
23.438,25.391,37.109,-12.695,67.871
-13.184,34.668,-120.117,-31.738,33.691
-16.602,34.668,-132.812,-27.344,-1.465
-15.137,30.273,-26.367,-38.574,-13.672
-0.977,30.762,59.57,-34.668,36.133
-7.812,28.32,-51.27,-39.062,31.738
-30.273,25.391,-108.398,-53.223,-25.391
-30.273,28.809,-78.613,-52.734,9.766
-20.02,27.344,-33.691,-51.758,67.871
-2.93,25.879,55.176,-47.852,22.949
5.371,26.855,23.438,-34.18,38.086
0,26.855,-109.375,-35.156,59.57
-7.324,26.855,-133.301,-39.551,5.859
1.465,27.344,-104.98,-36.133,-18.555
15.137,26.855,8.789,-36.133,18.555
17.09,28.32,58.594,-25.879,19.531
11.719,27.344,-99.609,-22.461,-1.953
-9.766,26.367,-141.113,-27.832,-27.832
-3.418,27.344,-88.867,-20.996,25.391
21.484,27.344,14.648,-19.531,30.273
27.832,24.414,81.055,-18.066,-10.742
21.973,25.879,-61.523,-14.16,44.434
7.812,26.855,-125,-15.625,39.551
14.648,29.785,-76.66,-17.09,44.434
33.203,32.715,9.766,-10.254,55.664
39.551,31.738,23.438,-3.906,2.93
33.203,30.273,-65.918,-10.254,31.738
15.137,30.273,-114.746,-16.113,15.137
18.555,34.18,-102.539,-10.254,5.371
27.344,32.227,-36.621,-3.418,25.879
35.156,25.879,51.758,-5.859,38.086
31.738,21.973,-67.871,-8.789,33.203
5.371,24.414,-145.02,-6.836,-41.992
7.324,29.297,-92.285,-7.324,-47.363
31.25,24.902,-30.762,-9.766,-27.832
46.875,21.973,67.383,-13.184,-17.578
39.062,27.344,-26.855,-13.184,36.621
23.926,30.273,-107.91,-14.16,25.879
29.297,28.809,-102.539,-17.09,26.855
37.109,28.809,-36.133,-18.555,80.566
41.016,29.785,74.219,-9.766,50.781
35.645,29.785,-27.344,-1.953,16.113
22.461,26.855,-100.586,-7.324,52.734
18.555,26.367,-58.594,-13.672,63.965
33.691,28.32,-62.012,-12.695,60.547
47.363,32.227,34.668,-8.789,59.082
41.016,31.25,14.16,-7.812,42.969
19.043,30.762,-102.539,-6.836,31.738
17.578,33.203,-87.891,-6.836,10.254
27.344,33.203,-21.973,-4.395,-6.836
39.551,35.156,55.176,1.953,7.812
41.016,33.691,18.555,5.371,6.836
25.391,36.621,-89.844,3.418,36.133
16.113,34.668,-128.418,0.488,44.434
25.879,32.715,-100.586,-1.465,1.465
47.363,35.156,31.25,-3.906,35.156
50.293,33.203,77.148,2.93,83.496
26.855,31.25,-89.355,7.324,70.312
3.418,26.855,-126.465,-1.953,5.859
4.883,24.414,-56.641,-1.953,-29.785
33.691,28.809,20.02,5.371,-0.488
36.621,33.203,16.602,2.93,70.801
20.02,32.715,-75.684,-2.93,52.246
22.949,34.18,-114.258,-2.93,29.297
28.809,36.133,-104.98,-4.395,3.906
39.551,34.668,-25.391,0,-40.039
45.898,33.203,33.203,7.812,4.395
33.203,31.738,-38.086,2.93,42.48
20.996,32.227,-77.637,-4.883,81.543
26.367,36.621,-127.93,-5.859,76.172
36.621,36.621,-45.41,-1.953,-18.555
39.551,43.945,63.477,2.441,8.789
30.273,50.781,-73.242,0.977,18.555
14.648,47.363,-123.535,-1.465,8.301
6.348,50.781,-132.812,-8.301,26.367
19.043,51.758,-48.828,-16.113,-1.953
32.227,50.781,80.078,-15.625,30.762
21.484,56.641,-78.613,-14.16,-1.465
-0.488,58.105,-132.812,-19.531,-4.395
-4.883,54.688,-92.773,-22.949,13.672
17.578,57.617,-75.684,-13.672,-13.184
32.227,54.688,65.43,-14.648,1.465
33.203,54.688,7.812,-16.602,48.828
17.578,57.617,-147.949,-8.789,17.09
12.695,53.711,-129.395,-6.836,-18.555
41.504,56.152,-30.762,-6.348,-14.648
49.316,59.57,48.34,-3.418,-12.695
32.715,57.129,-16.602,-1.465,25.391
22.461,57.617,-125,-0.977,52.734
20.996,56.641,-170.898,-2.93,6.348
20.02,50.293,-53.711,-4.883,-24.414
28.809,45.898,60.059,0.977,-6.348
32.715,48.34,4.883,0,8.301
18.066,49.805,-92.285,-7.324,91.309
13.672,49.805,-136.719,-8.789,80.078
23.438,49.316,-85.938,-8.301,7.812
33.203,47.363,32.227,-4.395,12.695
43.945,47.852,24.414,1.465,37.598
36.621,46.875,-94.727,-3.418,70.312
17.09,43.457,-114.746,-14.16,74.707
22.461,43.945,-79.102,-11.719,95.703
35.645,44.434,-9.766,-6.348,95.703
40.527,47.852,1.953,-5.859,39.062
28.32,42.969,-80.078,-7.324,32.715
12.695,41.504,-108.398,-13.184,79.102
19.531,40.039,-116.699,-12.695,53.223
40.527,39.551,-41.992,-10.254,87.402
55.176,45.41,63.477,-10.254,75.195
35.645,45.898,-62.988,-10.742,11.719
13.672,44.922,-145.508,-10.742,-25.391
15.625,41.992,-104.98,-6.836,-62.012
36.133,41.504,12.695,-6.348,-17.09
48.828,44.434,20.02,-2.441,-41.016
42.48,40.039,-106.934,0,-73.242
35.645,38.574,-87.891,-4.883,-9.277
22.461,35.645,-96.191,-4.883,37.109
25.391,30.273,-60.059,-11.719,18.066
35.156,31.738,77.637,-10.742,43.945
27.344,34.18,-47.852,-9.277,35.156
14.648,35.156,-114.258,-18.555,33.203
3.906,36.133,-121.582,-27.832,47.363
21.484,35.156,-65.918,-20.996,-54.688
31.25,31.738,40.527,-15.625,-3.418
21.973,35.645,-56.641,-20.996,8.789
14.648,39.551,-139.648,-17.09,-33.203
8.789,34.668,-137.207,-22.461,40.527
24.902,33.691,-7.324,-18.066,48.34
39.551,32.715,76.66,-9.766,68.848
38.086,27.832,-35.645,-6.836,55.664
24.414,30.273,-140.625,-2.441,0.977
15.625,32.715,-141.113,-6.348,1.953
34.668,33.203,-34.668,-1.465,43.945
49.316,40.039,49.316,2.441,81.055
43.945,39.551,-28.809,1.953,57.617
29.785,33.691,-104.492,-0.977,6.348
21.973,33.691,-127.441,-3.418,28.32
27.344,30.762,-73.242,-1.465,16.602
41.504,30.273,11.719,-3.906,-5.371
40.527,33.691,14.648,-1.465,46.387
18.555,34.668,-78.613,-0.977,72.266
3.418,30.762,-126.953,-4.395,19.043
11.719,30.273,-131.836,-5.859,-15.137
29.785,31.25,-28.809,-7.324,2.93
33.203,30.762,74.219,-9.766,22.461
16.602,26.367,-69.824,-9.766,34.18
-0.488,23.438,-158.203,-9.766,-7.324
3.418,24.902,-100.586,-12.695,-51.27
22.461,26.855,12.695,-5.371,-10.254
34.668,28.32,7.812,9.766,42.48
26.855,28.809,-110.84,9.277,60.547
12.207,28.32,-133.301,3.418,17.578
12.207,29.785,-114.746,6.348,-3.418
23.926,23.438,-39.062,5.859,-43.945
35.645,18.555,81.055,4.395,-40.039
30.273,25.879,-37.598,6.836,26.367
17.578,25.879,-117.676,2.441,75.195
21.484,24.902,-139.648,-0.488,54.199
28.32,25.391,-45.41,-3.906,-0.977
32.227,26.855,39.551,1.465,64.941
22.461,25.391,-74.219,6.348,51.27
4.883,23.926,-152.832,-1.465,-7.324
12.207,30.273,-141.113,-3.418,47.363
38.574,30.273,-56.152,-1.465,70.312
45.898,30.762,56.152,-0.488,-15.137
25.879,32.227,2.441,0.977,-38.086
9.277,30.762,-120.117,-4.395,13.184
13.672,35.156,-132.812,-10.742,2.93
30.762,32.715,-34.18,-12.207,23.438
48.34,31.25,45.898,0,59.57
41.992,33.203,-41.504,1.465,41.504
27.344,33.691,-133.789,-6.348,-0.488
21.973,32.227,-121.582,-6.348,-5.859
28.32,33.203,-44.434,-11.719,-9.277
50.781,34.668,11.719,-7.324,19.043
47.363,31.25,3.418,2.441,59.57
23.438,26.855,-60.547,0.488,69.336
16.602,27.344,-145.508,-6.348,52.246
22.949,26.855,-52.246,-8.301,30.273
46.875,29.297,88.379,6.348,39.551
61.523,40.039,14.648,18.555,59.57
40.039,41.504,-97.656,12.207,59.57
22.461,34.668,-117.676,2.441,31.738
33.691,30.762,-120.117,0,15.625
45.898,31.25,32.715,5.859,88.379
53.711,32.715,45.41,9.277,83.008
40.039,32.227,-124.512,2.441,22.949
25.391,32.227,-103.516,-2.441,52.246
30.273,31.738,-57.617,-1.953,48.34
47.363,29.785,43.945,0,81.543
56.152,29.297,29.297,-0.977,42.969
48.34,35.645,-104.492,3.418,-34.18
50.293,44.434,-114.746,10.254,-26.855
52.734,46.387,-98.633,6.348,-42.969
58.594,42.969,9.277,8.301,9.766
62.988,39.062,94.238,13.672,51.27
50.293,37.109,-61.035,7.324,65.43
37.598,38.574,-133.301,8.301,32.715
29.297,38.086,-127.93,7.324,20.02
51.27,34.668,-23.926,0,26.367
55.664,33.203,107.422,0,-12.207
35.156,35.156,-2.441,2.93,40.039
31.25,34.668,-111.816,3.418,70.312
35.156,31.738,-105.469,-2.441,55.176
45.898,31.738,-31.25,-3.418,51.27
54.199,30.762,57.617,0,69.824
45.898,27.832,-49.316,2.441,64.453
33.203,31.738,-128.906,0,-18.555
37.109,39.062,-51.758,0.977,82.52
46.387,39.062,-20.996,7.324,140.625
44.434,30.762,13.184,2.93,44.922
35.645,27.344,-11.719,-8.789,48.34
26.855,33.203,-85.449,-8.789,34.18
18.066,36.133,-115.723,-3.418,-12.695
19.531,34.18,-88.379,-6.836,-40.039
45.41,38.574,57.617,0.977,19.531
50.293,42.48,53.711,9.277,67.871
23.926,33.691,-127.93,-1.465,-15.625
9.277,24.414,-152.832,-7.812,-128.906
14.648,22.949,-14.648,-2.441,-42.969
32.227,22.949,30.762,0.488,14.648
40.527,20.996,-39.551,-2.93,-35.645
23.438,20.996,-113.77,-6.348,-23.438
17.578,20.996,-114.258,-5.371,0
27.344,22.461,-60.547,-7.324,15.625
37.109,24.902,31.738,-4.395,4.883
37.598,23.438,27.344,0,-4.395
23.438,22.949,-89.355,-7.324,23.926
17.578,25.391,-106.445,-12.207,44.922
15.137,22.949,-129.883,-14.16,26.367
31.25,23.926,-18.066,-11.23,17.09
45.898,23.438,53.711,-4.395,14.648
21.484,20.996,-97.656,-6.836,27.832
0.488,18.555,-143.555,-16.602,31.738
17.09,23.438,-154.297,-21.973,58.105
38.086,26.855,-22.461,-20.508,62.988
44.922,26.855,82.031,-13.184,33.691
33.203,28.32,-59.082,-7.812,21.973
16.602,28.32,-136.719,-9.766,36.133
22.949,28.32,-142.578,-11.23,1.953
36.133,27.832,-18.066,-5.859,-17.09
40.527,27.832,22.949,-3.418,0.488
28.32,32.227,-100.098,0.977,-21.484
17.09,34.18,-146.484,0.977,-21.484
20.02,33.691,-127.93,-12.207,4.883
43.457,33.203,-39.062,-17.09,26.855
57.129,32.715,11.23,-14.16,35.156
31.738,32.227,-66.895,-11.23,38.574
5.859,29.297,-109.863,-12.207,13.672
18.555,32.715,-130.371,-10.742,38.086
39.551,31.738,-50.293,-10.254,51.27
53.223,29.785,50.293,-14.16,36.133
51.758,33.203,-59.082,-13.672,1.953
29.297,31.25,-133.789,-9.766,23.438
12.207,24.902,-135.742,-5.371,97.168
28.32,24.902,-106.445,-6.348,48.828
47.363,21.973,43.457,-4.883,-25.879
40.527,25.879,5.371,4.883,20.02
26.367,35.156,-157.715,7.812,48.34
14.16,29.297,-135.254,-2.93,7.812
17.578,26.367,-82.52,-10.254,18.555
25.879,28.32,36.133,-6.348,39.062
28.809,26.855,45.898,0.488,63.477
17.578,26.855,-121.094,-5.859,70.801
4.883,26.855,-159.18,-10.742,50.781
13.184,29.785,-53.223,-4.883,10.742
35.645,33.691,42.48,-8.301,3.906
33.691,30.762,-16.113,-11.719,-16.113
10.254,30.273,-96.68,-8.789,25.879
3.418,30.273,-137.207,-11.719,80.078
19.043,31.25,-146.484,-10.742,18.066
31.25,29.297,24.902,-8.789,81.055
29.785,26.855,48.828,-9.277,106.445
19.531,31.25,-116.699,-10.254,29.785
5.859,31.738,-135.742,-15.137,23.926
8.301,30.273,-115.723,-11.719,93.75
32.227,34.18,-30.273,-1.465,66.895
43.457,33.691,32.715,-1.465,-9.277
36.133,33.203,-88.379,-1.953,15.625
17.578,32.227,-145.508,-1.465,56.152
7.324,23.438,-101.074,-9.277,84.473
24.902,20.996,-41.504,-6.836,23.926
39.062,26.855,-12.695,-2.93,-9.277
32.227,30.273,-85.449,-4.395,9.277
17.578,32.715,-110.352,-6.348,43.945
14.648,27.832,-141.602,-10.742,52.734
24.902,22.461,-55.176,-8.789,35.645
37.109,23.438,54.199,-5.859,63.477
26.855,27.344,-75.195,-4.395,71.777
7.324,29.297,-148.438,-5.371,46.387
6.348,27.832,-160.156,-9.277,-23.926
28.32,31.25,-59.082,-7.324,-8.789
39.062,32.227,78.125,-6.348,41.992
28.809,27.832,-48.34,-6.348,31.738
11.23,24.902,-130.859,-12.695,48.828
1.953,25.391,-115.234,-18.066,76.66
23.926,24.902,-26.367,-14.16,43.457
39.551,24.414,63.477,-13.184,49.805
29.297,23.438,-18.066,-13.184,43.457
16.113,21.973,-106.934,-11.719,45.898
15.625,25.391,-133.301,-15.137,10.742
28.809,26.367,-75.195,-18.066,-4.883
44.434,24.414,59.082,-15.137,90.332
47.363,28.809,2.441,-6.836,54.688
22.461,29.785,-125.977,-7.324,22.949
15.137,27.832,-150.879,-9.277,17.09
38.086,32.227,-83.496,0.488,3.906
64.453,39.062,37.598,13.184,27.344
68.359,39.062,5.371,20.996,35.645
32.715,30.273,-71.289,3.418,62.988
14.648,25.879,-121.094,-6.836,86.426
35.156,27.832,-82.031,5.859,58.105
51.27,34.18,29.785,11.23,37.109
52.246,35.156,13.672,11.719,20.996
29.785,33.203,-82.52,5.859,34.18
15.137,33.691,-109.863,-0.488,82.52
25.879,34.668,-122.559,-1.953,125.977
44.434,35.645,-32.715,-0.488,84.961
54.688,34.668,21.973,6.836,24.902
42.48,32.715,-83.984,2.441,6.348
24.902,35.156,-82.52,-4.395,30.273
27.344,32.715,-133.789,-6.348,68.359
37.109,30.273,-55.664,-9.277,39.062
49.316,32.227,88.867,-4.883,15.625
37.109,29.297,-65.918,-3.418,-27.344
21.973,30.762,-143.555,-6.836,-53.223
27.832,33.691,-119.141,-6.348,1.465
42.969,33.691,-9.277,0.977,48.828
53.223,34.668,53.711,7.812,72.754
36.133,37.598,-78.613,4.395,46.387
25.391,42.48,-167.48,4.883,19.043
31.738,39.551,-138.184,8.301,28.32
43.945,39.551,-46.387,2.93,-2.441
60.547,44.922,73.73,7.324,-22.949
50.781,41.992,-18.555,12.207,-14.648
30.762,43.457,-135.254,5.859,-59.082
27.832,46.387,-119.629,-0.488,3.418
34.668,42.48,-31.738,-7.812,26.367
45.41,39.062,51.27,-6.836,-38.086
43.457,39.062,-20.996,-3.906,-30.762
17.09,37.598,-117.188,-8.301,-15.137
-1.465,31.738,-129.395,-13.672,-3.906
16.602,27.832,-53.223,-14.16,15.137
39.062,32.715,55.664,-11.23,-24.414
37.598,36.621,14.16,-8.789,-11.719
24.414,38.086,-112.305,-1.465,12.695
20.508,38.086,-109.863,1.953,7.812
28.809,33.203,-69.336,-4.395,90.82
41.992,35.156,30.273,2.93,95.215
54.199,39.551,32.227,11.719,-9.766
38.086,41.504,-93.75,3.418,48.34
14.648,40.039,-132.324,2.441,69.824
23.926,40.039,-19.531,7.324,21.484
53.223,43.945,59.082,9.277,25.879
70.312,44.922,-16.113,12.207,1.953
52.734,48.828,-75.684,11.719,20.508
39.062,47.852,-87.402,4.395,31.738
48.828,41.992,-120.605,0,12.695
57.617,43.945,9.766,4.395,14.16
45.41,44.922,112.793,13.184,95.215
19.531,41.504,-79.59,7.324,74.707
5.371,38.086,-156.25,-0.488,-2.93
17.09,39.551,-108.887,2.93,-15.137
40.039,39.551,16.113,6.348,-39.551
46.387,34.668,52.734,5.859,2.93
37.109,35.156,-71.777,3.906,35.156
25.879,41.016,-134.766,6.836,22.461
17.578,38.574,-99.121,7.812,-0.488
26.367,33.203,19.043,7.324,38.086
40.527,33.691,72.266,15.137,39.551
34.18,33.203,-47.363,15.625,15.625
20.996,34.668,-116.699,5.859,10.742
22.461,39.551,-131.348,-2.441,30.273
39.551,38.574,-43.945,-4.883,34.668
44.922,39.062,104.98,-1.953,58.594
39.062,40.039,-4.883,-4.883,92.285
26.855,41.016,-115.234,-5.371,67.383
21.973,41.992,-124.023,-4.883,51.758
35.156,37.109,-46.875,-3.418,69.336
50.781,34.668,43.945,1.953,87.402
55.176,38.574,-16.113,3.418,39.062
33.691,38.574,-102.051,-1.953,-12.207
21.484,38.574,-114.258,-1.953,-10.254
28.32,37.598,-84.473,-2.93,33.691
48.828,38.574,35.156,-1.465,32.227
48.34,32.227,24.902,3.418,12.207
28.809,32.227,-106.445,3.906,4.883
22.949,36.133,-130.371,-0.977,34.18
33.203,31.25,-52.246,-0.977,82.031
51.27,34.668,35.645,1.465,95.215
53.223,35.645,-24.902,0.488,105.957
32.227,28.809,-103.516,-1.465,74.219
15.625,25.879,-99.609,-8.789,32.227
29.785,28.809,-122.559,-7.324,40.527
50.781,29.785,-35.645,-5.859,15.137
44.922,30.762,29.297,-6.348,-78.613
26.855,34.668,-70.801,-1.465,-115.234
19.531,32.715,-98.633,-1.953,-7.812
19.043,27.344,-60.059,-6.836,89.844
41.504,28.809,21.484,-3.418,72.754
58.594,33.203,-4.883,-0.977,-30.273
41.016,34.668,-100.098,-3.906,-59.082
25.879,36.621,-137.207,-4.883,28.809
29.785,37.109,-149.414,-4.883,18.555
47.852,39.062,10.742,-3.418,21.973
56.152,40.039,104.492,-1.953,40.527
39.062,36.133,-61.035,-4.883,25.391
21.484,29.785,-127.441,-17.09,85.449
23.926,32.715,-146.484,-19.531,56.641
32.715,34.668,-28.32,-16.113,-46.387
41.992,34.18,72.266,-13.672,-47.852
36.621,33.203,-42.48,-10.742,21.484
19.043,33.203,-128.906,-11.719,25.391
18.555,36.621,-134.277,-11.23,4.395
30.762,32.227,-41.992,-10.254,34.18
46.387,33.203,59.082,-2.93,64.453
41.504,34.668,-25.879,1.953,17.09
26.855,34.18,-113.281,-1.465,-47.363
36.621,37.109,-125,-4.395,-42.969
59.57,40.527,-80.078,-3.906,-45.898
67.871,40.527,61.035,0,-12.207
67.383,41.016,15.137,2.441,37.109
48.828,41.504,-103.516,-0.488,92.285
36.133,41.992,-176.27,-2.93,-0.977
41.016,36.621,-32.227,-3.418,-31.738
56.152,30.273,56.641,3.418,49.316
57.129,31.738,-74.707,2.93,-11.23
28.32,35.156,-92.285,-9.277,43.457
10.742,34.668,-110.352,-14.648,68.848
16.602,30.273,-56.641,-15.625,29.785
34.668,28.809,57.617,-13.184,43.457
39.551,36.621,7.324,-5.859,96.68
23.438,38.086,-129.395,-10.742,85.449
20.02,34.18,-148.926,-14.16,55.176
31.25,34.668,-66.895,-11.719,24.414
47.363,33.203,54.688,-4.883,17.09
54.688,33.691,19.043,1.953,59.082
28.809,32.715,-140.625,-6.836,-34.668
9.277,27.832,-146.484,-7.812,-63.965
25.879,27.832,-89.355,-5.371,29.785
51.27,33.203,-29.785,-3.418,23.926
52.734,34.668,73.242,0.977,49.316
37.109,32.227,-38.574,-5.859,83.496
20.02,32.715,-155.273,-14.648,56.641
20.996,32.715,-106.445,-15.137,33.691
37.598,30.273,12.207,-17.09,33.691
55.664,34.18,40.039,-9.766,79.59
50.781,36.621,-91.797,-6.348,66.895
23.438,32.715,-147.461,-12.695,45.41
23.926,33.203,-141.113,-11.23,22.949
44.922,34.18,-35.156,-10.254,9.766
54.199,34.18,46.387,-6.348,89.355
42.969,35.156,-75.195,-6.348,53.711
23.438,32.715,-117.676,-10.742,12.695
22.461,32.715,-144.531,-14.648,0.488
40.039,37.109,-70.801,-15.137,-17.09
61.523,37.109,93.75,-16.113,24.902
53.223,34.668,-41.016,-18.066,6.836
30.273,36.621,-140.625,-14.648,-26.367
19.531,38.574,-137.207,-16.113,9.766
26.855,38.086,-46.875,-18.555,39.551
42.48,36.133,33.203,-17.09,54.199
45.898,36.133,-85.938,-17.09,30.273
34.668,38.574,-118.652,-17.09,26.855
24.902,37.109,-131.348,-16.602,36.133
39.551,37.109,-48.828,-12.207,96.68
56.152,34.668,24.414,-9.277,93.75
51.758,33.203,-52.734,-11.719,37.109
38.574,36.133,-119.629,-11.23,20.996
34.668,36.133,-169.922,-9.277,-40.039
39.062,33.203,-55.664,-9.766,-19.531
54.688,34.18,43.945,-8.301,-9.766
63.477,38.086,-4.883,-1.465,-27.832
43.945,39.551,-118.652,1.953,4.395
32.227,39.062,-171.875,-1.953,10.254
51.758,37.598,-125.488,-6.836,-13.184
63.965,38.574,10.742,-11.719,10.742
61.523,41.016,67.871,-8.789,31.25
49.805,37.598,-90.82,-9.277,9.277
28.809,38.574,-144.531,-18.066,44.434
31.738,41.504,-79.59,-18.066,23.438
48.828,36.621,11.719,-10.254,-48.34
56.152,36.621,24.902,-11.23,13.672
50.293,40.039,-67.383,-4.395,79.59
37.598,39.062,-166.504,-1.465,26.367
38.086,38.574,-109.863,-5.371,17.578
49.316,38.574,-5.371,-0.977,27.344
51.758,38.574,25.391,-0.977,1.465
42.969,42.969,-46.875,-0.977,29.297
25.879,42.969,-140.625,-6.348,55.176
26.367,40.527,-153.32,-3.906,22.461
43.945,37.109,-22.949,-0.977,39.551
48.828,33.691,29.785,-5.859,33.691
41.992,37.109,-83.008,-3.906,11.23
32.227,38.574,-127.441,-4.883,32.715
21.484,31.738,-175.781,-12.207,10.254
31.25,31.25,-41.016,-8.789,25.879
53.223,35.645,75.684,-2.93,23.926
39.551,30.762,-86.914,-3.418,11.719
24.414,27.344,-120.117,-6.348,33.691
24.902,29.297,-141.113,-9.277,5.371
30.762,29.297,-87.891,-7.812,39.551
44.922,30.762,57.617,-4.395,54.199
37.109,28.809,-20.996,-6.348,23.926
17.09,24.414,-125.488,-10.742,69.824
16.602,27.832,-178.711,-7.324,16.113
31.25,29.297,-65.918,-1.465,-26.367
51.758,27.832,50.781,4.395,48.34
52.246,32.715,-45.898,5.859,47.363
33.203,34.668,-154.785,4.395,28.809
26.367,33.691,-172.363,3.418,54.688
38.086,33.691,-110.84,-4.395,77.637
57.617,33.203,31.738,3.418,50.293
55.176,29.785,20.02,13.672,17.09
35.645,32.227,-130.371,5.371,-3.418
23.438,32.227,-142.578,-1.465,1.465
30.762,31.738,-67.383,0,12.695
45.41,33.203,41.016,5.859,20.508
52.734,35.645,4.883,11.23,68.848
40.039,37.109,-125,9.766,45.41
27.344,34.668,-146.484,2.441,46.387
33.203,31.738,-81.055,4.883,68.359
44.922,30.273,4.395,8.789,73.73
49.316,32.227,10.742,8.301,57.617
32.227,35.156,-100.098,5.371,19.043
22.461,39.062,-123.047,-0.488,30.273
35.156,40.527,-128.906,-1.953,43.457
46.387,34.668,-19.531,5.371,1.953
48.828,32.715,76.66,1.953,-27.344
45.41,35.645,-69.336,0.488,41.992
37.598,38.086,-133.301,4.395,83.496
38.086,39.062,-126.465,0.488,41.504
61.523,34.18,15.625,3.906,17.09
69.336,32.715,21.973,4.395,-2.93
47.852,34.668,-127.441,3.906,-19.043
35.156,35.156,-105.957,4.883,18.066
32.227,32.227,-122.07,-2.93,47.852
44.922,35.645,-41.992,-7.324,20.508
57.617,37.598,91.797,-5.371,6.836
41.992,35.645,-63.477,-7.324,-11.23
24.414,36.133,-121.582,-11.719,-45.898
28.809,32.715,-132.812,-18.066,-46.875
44.434,31.738,-56.641,-13.672,-30.273
50.293,29.297,39.551,-7.812,7.812
37.109,28.809,-62.5,-9.766,29.785
22.949,30.762,-147.949,-12.207,5.371
16.602,32.715,-158.691,-17.578,26.855
29.297,34.18,-78.613,-16.113,31.738
49.316,30.762,69.824,-7.812,30.762
45.898,31.25,-0.977,-5.859,38.086
32.227,36.133,-142.578,-5.371,19.043
24.414,35.645,-157.715,-5.371,-41.504
25.391,32.715,-52.246,-8.789,-6.348
36.133,29.785,18.555,-12.695,30.273
42.969,29.297,-29.297,-11.23,61.035
25.391,32.715,-116.699,-11.719,17.578
13.672,33.203,-147.461,-13.672,-22.461
29.785,32.227,-52.246,-7.324,12.695
50.781,35.645,-1.465,-5.859,-13.672
48.828,33.691,6.348,-11.23,46.875
37.109,34.668,-69.824,-10.742,97.656
28.809,38.086,-138.672,-11.719,77.148
29.785,35.156,-138.184,-17.09,62.5
45.41,36.621,-0.488,-13.672,43.457
54.688,38.086,63.477,-3.906,49.316
38.086,35.156,-108.398,-6.836,23.926
15.137,34.18,-155.273,-8.789,-14.16
17.578,32.715,-92.773,-9.766,54.199
30.762,30.762,6.836,-9.277,70.801
32.715,32.227,12.695,-7.812,43.945
28.32,35.645,-135.254,-3.418,41.504
20.508,35.156,-137.207,-1.953,-11.719
21.484,37.109,-142.09,-5.859,-22.461
40.039,39.062,-29.785,0.977,19.531
54.688,39.062,91.797,4.395,33.203
50.293,41.992,-75.195,-2.441,24.902
33.691,45.41,-155.273,3.418,10.742
29.297,42.48,-117.676,5.859,32.715
46.875,34.668,-9.766,-3.418,74.219
60.547,36.133,37.109,3.418,79.102
46.387,40.039,-81.055,5.371,42.969
29.785,41.016,-157.227,-1.465,35.645
33.691,43.457,-160.645,-2.93,99.121
47.363,42.969,-57.129,-0.488,62.5
67.383,38.574,53.711,4.883,48.34
62.988,39.551,-37.109,0.977,-2.441
50.781,41.992,-112.305,-0.977,19.531
44.434,41.992,-153.809,-3.418,104.98
43.945,42.48,-91.797,-1.953,54.688
61.035,40.039,84.961,2.93,48.34
69.824,43.457,-31.25,7.812,-5.859
47.852,43.945,-148.438,6.348,-63.965
32.715,36.621,-138.672,-3.418,-26.367
51.27,32.715,-75.684,-2.93,8.301
72.266,32.227,11.719,3.906,36.621
76.172,34.18,-8.301,8.789,81.543
66.895,38.574,-116.699,3.418,63.477
59.082,40.039,-161.621,-2.93,10.742
55.664,38.086,-109.375,-2.441,13.184
64.941,39.551,25.391,4.395,81.543
64.453,37.598,23.926,4.395,72.266
49.316,37.598,-128.906,-2.93,31.25
42.48,42.969,-169.922,-0.977,-8.301
45.898,41.016,-80.078,-1.953,-56.152
64.941,37.598,40.527,5.371,-20.508
77.148,39.062,-17.09,5.371,2.441
56.152,40.039,-141.113,-3.906,40.039
28.809,37.109,-147.461,-2.93,85.938
36.133,37.109,-89.844,-3.418,136.23
56.152,34.668,-0.488,-2.93,93.75
57.129,32.715,7.812,2.93,-21.973
41.016,36.133,-114.746,3.906,-6.348
24.414,36.133,-165.039,-0.977,15.137
31.25,36.133,-119.141,3.418,-19.531
49.316,38.574,6.348,7.812,8.301
56.641,38.574,6.836,8.301,2.441
49.316,37.109,-95.215,4.395,-61.035
33.203,38.086,-134.766,-1.953,13.184
29.297,37.109,-195.312,-2.441,-3.418
49.805,39.062,-83.496,1.953,-61.523
64.453,41.016,81.543,-0.488,2.93
50.781,40.527,-37.109,-2.441,17.09
36.133,41.504,-151.855,-3.418,-53.223
31.738,38.574,-129.883,-11.23,-11.23
31.738,35.645,-36.621,-9.277,7.812
47.852,38.574,28.809,-7.324,3.906
44.922,43.457,-58.594,-8.789,36.133
17.578,42.969,-112.305,-7.812,2.441
12.207,43.945,-138.672,-13.184,-3.418
28.809,44.434,-64.453,-13.184,43.457
49.316,39.551,0,-7.812,74.219
50.293,40.039,-49.316,-6.836,67.871
32.715,38.086,-130.371,-12.207,0.488
25.391,39.551,-167.969,-14.16,-88.867
28.809,39.551,-108.887,-17.578,-38.574
44.922,41.016,52.246,-15.137,41.504
46.387,44.434,-0.977,-4.395,33.203
27.832,42.969,-144.531,-3.418,45.41
25.879,46.875,-135.254,-3.906,69.824
36.621,49.805,-64.941,-6.348,83.008
41.016,41.504,8.789,-7.812,59.082
38.574,39.062,-20.02,2.93,27.344
14.648,41.016,-117.188,0.488,10.742
0,41.504,-133.301,-6.348,19.043
10.254,44.434,-103.516,-6.836,62.012
33.203,42.969,3.418,-5.859,40.039
39.062,42.48,51.758,-1.465,34.18
19.043,41.504,-93.262,-2.441,68.359
5.859,39.062,-164.062,-7.324,45.898
9.277,40.039,-99.121,-6.836,21.973
28.809,40.039,22.949,-5.859,1.953
41.016,39.062,16.113,-7.324,12.695
22.949,41.504,-101.074,-9.766,35.645
4.883,41.016,-152.344,-9.277,3.906
18.555,38.086,-165.527,-6.348,61.523
35.156,36.621,-32.227,-1.953,58.594
35.645,34.668,77.148,-1.953,30.273
23.438,37.109,-80.566,-0.488,9.766
7.324,36.621,-152.344,-4.395,14.16
10.742,37.598,-144.043,-5.371,46.875
29.785,40.527,-30.762,6.836,-9.766
39.062,35.156,41.992,12.207,26.367
21.973,36.133,-73.242,9.766,61.523
10.254,36.621,-169.434,9.277,-5.859
13.672,34.668,-144.531,4.395,-2.93
26.367,38.574,-37.109,2.441,67.871
40.527,39.062,-10.254,12.207,60.059
34.18,37.598,-58.594,14.648,18.066
9.277,38.574,-116.699,12.207,-14.16
-0.488,37.109,-161.133,9.766,12.695
21.484,38.574,-70.801,7.324,33.691
41.504,38.574,30.273,1.465,-6.348
31.738,35.156,-73.242,-0.977,-50.781
3.418,31.25,-125.977,-0.488,-16.113
-2.93,31.25,-161.133,-2.93,63.477
20.996,37.598,-124.512,6.836,14.16
41.016,37.598,67.383,8.789,-1.953
29.297,26.855,-30.273,5.859,-2.93
9.766,26.855,-165.527,6.348,22.461
6.836,33.691,-131.348,6.348,55.664
11.23,30.762,-114.258,8.301,-6.836
25.879,29.785,15.625,11.719,-33.691
27.832,31.738,37.109,18.066,6.348
13.672,31.738,-141.113,18.066,-1.465
4.883,35.156,-175.293,10.742,-15.137
7.812,31.738,-66.406,7.324,-44.922
26.855,28.809,32.715,5.371,-58.105
40.527,31.25,-0.488,5.371,8.301
36.621,31.25,-104.004,10.742,80.078
26.855,34.18,-170.898,11.23,104.492
29.297,36.133,-142.09,6.836,11.23
53.711,36.621,33.691,11.719,-13.672
54.688,37.109,49.316,12.695,52.734
31.738,37.109,-101.074,9.766,43.945
13.672,38.086,-150.391,5.371,25.391
5.371,37.598,-159.18,-2.441,57.129
25.391,36.621,-36.133,-2.93,103.516
40.039,35.645,36.133,7.324,35.156
25.879,36.621,-117.188,8.301,-40.527
3.906,34.668,-170.898,0.977,-47.852
3.418,33.203,-104.492,2.441,-12.207
30.273,34.18,-23.438,5.859,32.715
41.992,35.156,-32.715,7.812,20.996
25.879,40.039,-76.66,10.742,-1.953
6.836,39.062,-111.328,7.324,-26.367
0,33.691,-184.082,-1.953,-3.418
15.625,36.621,-90.332,-8.789,-22.461
36.133,41.016,80.078,0,8.789
31.25,36.621,-44.434,3.418,84.473
8.789,34.18,-163.574,-4.395,66.895
4.883,37.598,-169.434,-10.742,52.734
14.648,38.574,-58.594,-12.207,77.148
20.02,37.598,5.371,-4.395,77.148
11.23,39.062,-85.938,-0.488,72.266
-0.488,46.875,-154.297,-0.977,58.594
4.395,50.293,-157.715,-4.395,30.273
14.648,44.922,-89.355,-3.418,44.434
32.227,43.457,49.316,6.836,45.41
41.016,43.457,-4.395,4.883,11.719
31.25,45.41,-139.16,0.977,55.176
21.973,47.363,-171.875,6.348,61.523
27.832,48.34,-83.984,7.812,69.336
48.34,49.316,3.906,10.742,60.547
56.641,44.922,-56.641,12.207,-20.996
39.062,44.922,-120.605,4.883,9.766
25.391,46.875,-170.898,6.348,49.316
31.738,45.898,-126.953,10.254,21.484
50.293,46.387,1.953,5.371,21.973
47.852,42.48,11.719,7.324,41.016
41.016,40.039,-102.539,10.742,41.016
30.762,37.109,-162.598,0,19.531
18.555,36.621,-81.055,-4.883,43.457
37.109,37.598,22.949,-0.977,49.316
46.387,36.133,-4.883,2.93,21.484
25.879,37.109,-112.793,3.906,18.066
8.301,39.062,-173.34,1.953,11.719
13.672,38.574,-137.207,-2.93,20.996
35.645,34.18,-20.02,-4.395,3.906
41.016,34.18,-14.16,-0.488,-20.508
33.203,33.203,-87.402,4.883,-24.902
18.555,35.645,-123.047,1.465,7.812
14.16,41.504,-159.18,-1.953,20.508
31.738,41.016,-37.109,3.418,-21.484
43.457,39.551,46.387,5.371,-0.488
25.879,39.062,-104.98,3.418,-4.883
15.625,39.551,-160.645,4.395,8.789
25.879,41.016,-176.758,3.906,27.344
39.062,40.039,-62.988,1.465,14.648
56.152,41.016,73.73,3.418,9.277
46.387,42.969,-73.73,5.859,12.207
21.484,43.457,-160.645,2.441,39.551
13.672,46.387,-158.203,0,51.758
30.762,47.363,-67.383,2.93,20.02
53.711,44.434,78.613,4.883,-15.625
41.016,42.48,-10.254,0.488,12.695
17.578,39.062,-139.16,-6.836,46.387
16.602,40.039,-169.922,-8.301,46.875
33.203,42.969,-50.293,-5.859,41.504
41.504,44.434,43.945,-2.93,76.172
35.156,46.387,-66.406,-3.418,37.109
19.531,42.48,-142.09,-6.348,20.02
8.789,40.039,-149.902,-4.883,77.637
12.695,37.598,-107.91,-8.789,15.137
35.156,34.18,9.277,-10.742,-70.801
44.434,37.109,-0.977,-3.418,-46.387
24.414,37.109,-106.934,-5.371,3.418
11.719,35.156,-162.598,-10.254,-26.367
13.672,37.598,-125,-6.836,-14.648
28.809,34.668,30.762,-3.906,23.438
32.715,32.227,38.574,2.93,66.406
6.836,30.762,-154.297,-0.977,47.363
-1.953,33.203,-178.223,-5.371,-1.953
17.09,36.133,-58.105,-0.977,24.414
26.855,36.621,5.859,-0.977,-2.441
31.738,39.062,-18.555,4.883,36.621
23.926,39.062,-104.004,6.348,35.645
20.02,40.527,-106.445,1.465,46.875
32.715,46.387,-156.25,0,24.414
43.945,46.875,-24.414,0.977,15.137
52.734,46.387,74.219,2.93,45.898
48.828,49.316,-96.68,7.324,-18.066
36.133,44.434,-137.207,14.16,-12.695
32.715,44.434,-88.867,9.766,73.242
43.945,49.805,6.348,-10.742,96.68
79.59,54.688,-5.859,-3.906,58.594
78.613,52.246,-113.77,12.695,-5.859
40.039,44.922,-138.672,12.695,37.598
35.156,49.316,-143.555,5.371,31.25
50.293,50.781,-11.719,1.465,0.488
65.43,51.758,32.715,16.113,-11.719
59.082,53.223,-67.871,17.09,7.812
42.48,44.922,-129.395,6.348,94.238
41.992,44.434,-190.43,9.766,28.809
56.641,49.316,-65.918,8.301,-0.977
72.266,53.711,47.363,9.766,32.715
61.035,53.711,-68.848,14.648,4.395
45.41,53.223,-137.207,10.742,-7.324
37.598,53.223,-169.922,7.812,6.836
45.898,50.781,-78.125,11.719,18.066
62.5,47.363,38.574,10.742,20.02
62.5,47.363,-36.133,10.254,15.625
41.016,43.945,-102.539,5.371,17.09
27.832,43.945,-120.605,-6.836,50.293
42.48,48.34,-150.879,-1.465,48.828
53.711,48.828,24.414,4.395,-25.879
48.34,46.387,65.43,5.371,29.297
36.133,44.434,-133.301,6.348,41.016
30.273,47.852,-176.758,2.93,-20.508
36.133,47.363,-77.148,4.883,5.371
57.129,45.41,25.879,8.301,68.848
65.918,44.434,-48.828,9.277,69.336
46.387,40.527,-106.445,0.977,81.055
32.227,39.551,-127.93,-6.348,57.129
39.062,40.527,-149.414,-7.324,9.766
53.223,39.551,9.277,-7.324,78.613
56.641,37.109,49.316,-5.859,66.406
44.434,41.016,-107.422,-9.277,13.672
36.621,47.363,-166.016,-11.719,23.926
34.18,43.457,-110.352,-15.625,1.465
49.805,42.48,15.625,-16.602,8.301
62.012,44.922,23.926,-14.648,69.824
44.434,44.922,-103.516,-12.207,64.453
24.902,42.48,-189.941,-11.23,49.805
26.855,41.016,-136.23,-13.672,14.648
38.574,39.062,2.93,-15.137,-19.531
50.293,38.574,3.418,-14.16,-44.922
45.41,45.41,-113.77,-8.301,-52.246
28.32,45.898,-150.879,-7.324,-73.73
18.555,39.551,-175.781,-10.742,-15.625
32.227,40.527,-60.547,-11.23,64.453
48.34,38.086,68.848,-14.16,65.43
36.133,32.715,-76.66,-12.695,51.758
11.719,31.738,-156.25,-9.766,25.391
6.348,31.25,-154.785,-13.184,39.062
16.602,31.25,-72.754,-18.066,84.961
32.715,33.691,10.254,-6.836,9.766
32.227,34.18,-35.645,-1.465,-1.953
13.184,30.762,-148.438,-12.695,-16.602
0.977,29.297,-193.359,-17.09,-21.484
9.277,28.809,-101.074,-18.066,43.457
29.297,30.273,55.664,-15.137,20.02
38.574,32.227,-9.766,-11.23,36.133
30.273,36.133,-151.367,-12.207,54.199
18.066,37.598,-187.5,-14.16,61.523
25.391,32.715,-62.012,-11.719,83.008
41.992,29.785,12.207,-8.789,50.293
37.598,33.691,-65.43,-11.23,27.344
20.996,35.645,-130.371,-7.812,34.18
19.043,30.762,-128.906,-6.348,45.898
32.715,29.785,-125.977,-5.371,50.781
44.922,33.691,10.254,0.488,48.828
50.293,34.668,21.484,7.812,23.438
43.457,35.645,-133.301,6.348,4.395
29.785,36.133,-177.246,0.977,-28.809
37.598,37.598,-67.383,5.859,-19.043
50.781,35.156,22.461,14.648,21.484
55.664,32.715,-9.277,12.695,20.02
41.992,34.18,-115.723,4.883,91.309
13.672,30.273,-203.613,1.953,32.715
20.02,31.738,-152.832,0.488,-22.461
45.898,36.621,11.719,3.418,54.199
50.293,35.645,42.48,11.23,52.734
45.898,36.133,-96.68,14.648,57.129
33.203,39.062,-175.293,4.395,36.133
33.203,40.039,-139.16,0.977,14.648
43.945,41.504,0.488,8.301,33.691
48.34,39.062,10.742,8.789,14.16
43.945,36.133,-97.656,4.883,-39.062
29.785,38.574,-143.066,0,6.836
27.344,39.551,-133.789,-3.418,38.086
42.48,37.109,-28.32,-2.93,18.066
54.199,40.527,37.598,0.977,61.035
45.41,39.062,-47.852,0,53.223
21.484,32.715,-105.469,-7.812,59.082
19.531,32.227,-195.801,-12.207,55.664
43.945,33.203,-92.773,-8.789,8.301
56.641,35.645,85.449,-2.93,-32.227
44.434,33.203,-32.715,0.977,-0.977
28.809,29.785,-145.996,-1.465,35.156
20.508,33.691,-184.57,-4.883,51.27
34.668,33.203,-71.777,-3.418,45.41
45.898,29.297,20.02,-2.441,40.527
26.855,27.344,-105.957,-3.906,-36.133
8.789,25.391,-134.766,-2.93,-32.227
14.648,28.809,-143.066,0,-5.371
33.203,29.785,-80.078,-4.883,-6.836
51.758,26.367,39.062,-3.418,36.621
50.781,30.762,-10.742,4.883,104.004
28.32,33.691,-138.672,2.93,84.473
21.973,32.715,-198.73,-0.488,-4.395
35.645,32.227,-112.793,-3.418,35.156
57.129,32.227,49.316,-0.488,51.758
55.176,29.297,-9.277,3.906,-23.438
26.367,28.32,-148.926,-3.906,-16.602
8.789,27.344,-187.5,-8.301,41.504
18.555,23.926,-161.133,-5.859,50.293
41.016,26.855,-35.645,-1.465,4.883
42.48,30.762,-26.367,-3.418,-7.812
20.996,31.25,-178.711,-6.836,38.086
6.348,29.297,-221.191,-5.371,48.828
14.16,29.297,-168.457,-5.859,1.465
37.598,30.762,-27.832,-0.977,-14.648
41.016,27.832,-2.441,4.395,75.195
22.949,26.367,-164.551,-3.906,82.52
4.883,26.367,-238.281,-7.812,6.836
12.695,27.344,-162.598,-6.836,32.227
31.25,29.297,-53.711,-3.906,45.41
46.387,36.133,-19.043,2.93,-10.742
38.086,36.133,-88.379,-0.488,3.418
10.742,24.902,-169.434,-8.301,34.668
9.766,21.484,-227.051,-8.789,24.414
25.391,26.367,-80.566,-4.883,27.344
37.598,25.391,43.945,-5.371,42.969
30.762,26.367,-105.957,-11.23,32.715
13.672,31.738,-193.359,-13.672,-2.441
3.418,35.645,-193.359,-8.789,-23.926
22.461,40.039,-45.41,-4.395,2.441
48.828,41.016,12.695,1.465,28.809
42.969,37.109,-135.742,4.395,-0.488
20.508,36.621,-153.32,-4.395,-7.324
19.043,36.621,-171.387,-8.789,41.016
31.738,31.25,-117.676,-6.348,8.301
48.828,37.598,89.355,6.348,27.832
61.035,47.852,-34.668,15.137,25.879
47.852,47.852,-171.875,8.301,-47.852
34.668,48.828,-166.504,6.836,0.488
45.898,45.898,-67.871,9.277,59.082
67.871,41.992,37.109,4.883,87.402
70.801,39.062,-55.664,5.859,54.688
50.781,38.086,-176.27,6.836,-7.812
39.062,36.621,-222.168,-5.371,-24.902
45.898,35.156,-123.535,-12.695,8.789
53.711,33.691,44.922,-4.395,68.359
51.27,35.156,-29.297,2.93,5.371
33.203,36.133,-158.203,1.465,-32.715
21.973,34.18,-178.711,-3.418,1.465
28.809,34.18,-97.168,-3.906,13.184
33.691,28.809,12.207,-0.488,4.883
34.668,28.809,-27.344,5.371,15.625
24.414,30.762,-136.719,4.883,62.012
14.16,25.879,-196.777,-1.953,38.086
22.949,25.391,-114.258,-4.395,12.207
36.621,24.902,-29.297,-0.977,-3.418
42.969,22.949,-25.879,6.348,-10.254
37.109,24.902,-73.242,6.836,62.988
19.531,25.391,-158.203,2.441,84.473
26.367,24.902,-141.602,5.371,30.762
45.41,26.367,15.625,13.672,52.246
56.152,30.273,11.23,20.996,78.125
47.363,30.762,-121.094,20.508,3.418
24.414,29.785,-168.457,14.16,-20.996
22.461,33.203,-151.367,10.742,-10.742
43.945,33.691,-3.418,13.184,36.133
59.082,31.25,20.02,17.09,80.078
45.898,34.18,-127.93,16.113,43.457
27.832,38.086,-187.012,18.555,12.207
31.738,38.086,-166.992,19.043,-10.254
52.734,38.086,0.977,16.602,52.734
54.199,35.645,4.395,14.648,32.715
45.41,39.551,-101.562,14.648,-15.625
31.738,39.551,-130.859,13.672,48.828
13.184,33.691,-192.383,12.207,80.566
26.367,32.715,-115.723,8.789,95.703
49.316,32.227,42.48,4.883,34.18
50.293,31.738,-3.906,5.859,17.578
25.879,35.156,-171.875,1.465,16.113
17.09,39.551,-221.191,-0.488,-24.902
35.156,34.668,-85.938,4.395,-6.836
51.27,33.203,92.285,8.789,12.695
41.016,34.18,-3.418,11.23,56.641
19.531,33.203,-147.949,9.277,68.359
17.578,35.156,-167.969,2.441,64.453
35.645,34.668,-83.984,-2.441,57.129
48.828,34.18,35.645,-0.977,50.293
43.945,36.133,-3.906,2.93,85.449
27.832,37.109,-122.559,3.418,51.758
19.043,39.062,-179.199,-3.906,-12.695
27.344,36.133,-99.121,-8.301,-24.414
48.34,35.156,7.812,-8.789,5.859
54.688,36.621,-15.137,-9.766,-8.789
33.691,38.086,-88.867,-20.02,-12.695
19.531,37.598,-158.691,-25.391,-16.602
25.879,31.25,-149.414,-22.949,48.828
43.945,27.344,-7.812,-19.531,41.992
48.828,31.25,35.645,-9.766,-18.555
36.133,31.738,-109.863,-8.789,23.438
22.461,28.809,-184.082,-12.695,48.828
30.762,30.273,-125,-14.648,31.738
53.223,35.645,20.996,-16.602,27.832
64.453,38.574,14.16,-10.742,42.969
52.734,37.109,-127.93,-5.859,47.363
27.832,36.133,-173.828,-10.742,16.602
26.855,35.156,-173.828,-5.859,-28.32
55.664,33.203,-10.742,-0.977,34.668
72.266,30.273,66.895,0,43.457
57.617,25.879,-84.473,3.418,-17.578
35.645,21.484,-159.18,-5.859,42.48
28.809,21.484,-176.27,-6.348,13.672
47.852,19.531,-22.461,-0.488,-6.348
62.012,15.137,41.016,0,33.691
55.176,21.973,-67.871,2.441,62.012
30.762,22.461,-146.973,0,100.586
16.113,13.672,-203.613,-5.859,62.988
32.227,7.812,-87.891,-3.906,14.648
48.34,7.812,65.918,3.906,37.109
45.898,9.277,-32.227,1.953,71.289
31.25,11.23,-156.25,-1.465,58.594
25.879,14.16,-199.707,-3.418,45.41
41.992,14.16,-103.516,-3.906,33.691
49.316,13.672,41.504,0.977,-20.508
42.969,13.672,-49.316,-0.977,-31.25
32.227,16.602,-148.926,-3.418,-46.387
21.484,20.508,-178.223,-5.371,-24.414
32.227,19.531,-99.121,-3.906,-6.836
48.828,17.578,57.617,4.883,14.16
54.688,19.531,17.09,5.859,67.871
41.016,22.461,-120.605,0.488,70.312
22.949,20.508,-179.199,-6.836,21.484
29.297,19.043,-111.816,-7.324,24.902
45.898,21.973,46.875,0.488,19.531
44.434,24.902,40.527,-3.418,11.719
23.926,26.855,-107.422,-4.395,32.715
17.578,25.391,-167.48,-4.395,38.574
21.973,22.461,-104.98,-7.324,9.277
37.109,19.531,49.316,-6.836,-18.066
52.246,20.02,16.602,0,18.066
36.133,22.949,-133.789,5.371,74.219
13.184,22.949,-161.133,0,48.828
20.996,20.508,-136.719,-3.418,-0.977
46.875,24.902,14.16,5.371,11.23
50.781,26.855,68.848,2.441,23.438
25.391,20.508,-100.586,-7.812,48.34
4.395,21.484,-136.719,-9.277,65.43
4.883,20.996,-92.773,-10.742,104.98
31.738,19.531,8.301,-5.371,99.609
48.34,23.438,25.879,6.348,51.758
31.25,21.973,-68.359,5.859,52.246
17.578,23.438,-152.344,-0.977,34.18
20.508,26.367,-202.637,-2.93,-22.949
35.156,24.902,-23.438,-2.93,-28.809
46.875,23.926,118.652,-5.371,-11.719
37.598,24.902,-21.484,-0.977,21.484
13.672,28.809,-144.531,-1.465,41.504
15.625,27.832,-166.504,-13.672,-1.953
25.391,23.926,-22.949,-17.578,-15.625
36.133,24.902,46.875,-9.766,-4.883
41.992,26.855,-14.648,-7.324,13.184
18.555,27.832,-106.934,-14.16,51.27
13.184,28.809,-168.457,-5.859,-8.301
36.133,31.25,-47.363,-1.953,-34.668
51.758,33.203,29.785,0.488,25.879
51.27,33.691,-26.855,4.883,1.465
32.227,31.738,-77.637,-0.488,-25.879
16.602,28.32,-158.691,-2.93,-14.648
32.227,31.25,-104.98,-3.418,28.809
51.27,30.762,89.355,-2.93,48.34
49.316,28.809,22.461,0.488,18.066
34.668,31.738,-109.375,3.906,4.883
28.32,32.715,-162.109,5.371,3.906
37.109,29.297,-99.609,4.883,6.836
54.688,28.809,55.664,11.719,40.039
62.012,29.297,16.113,16.113,34.18
44.922,30.762,-131.836,11.23,5.859
35.156,33.203,-146.484,9.277,44.922
37.598,27.832,-43.945,5.371,90.82
48.34,28.809,47.852,7.812,49.805
64.453,30.762,-9.277,13.672,1.953
60.547,29.297,-108.398,14.16,-11.719
44.434,31.738,-143.066,15.625,-3.418
44.922,34.18,-143.555,16.113,64.941
60.059,34.18,-0.977,14.648,37.109
61.523,31.25,49.805,9.766,12.695
49.805,29.785,-89.844,9.766,30.762
34.18,34.668,-171.387,10.254,-3.418
33.203,37.109,-139.16,8.789,51.27
53.223,35.156,-21.484,11.23,-5.371
62.5,33.691,55.176,7.324,-8.301
53.223,34.18,-70.312,4.395,34.18
34.18,30.762,-171.387,0,-6.836
25.391,28.32,-193.359,-2.93,9.277
46.387,32.227,-54.688,3.906,30.762
62.988,33.203,77.148,9.277,46.387
48.828,34.18,-76.66,5.859,34.668
25.879,34.668,-166.992,8.789,21.484
21.484,38.574,-140.137,3.418,43.457
37.109,39.551,-41.504,0,39.062
49.316,40.039,-13.672,8.789,34.668
44.434,43.945,-34.18,3.906,61.035
31.25,40.039,-103.027,-7.324,106.445
32.715,36.133,-208.008,-12.207,45.898
48.828,35.156,-72.266,-10.254,11.719
62.988,34.668,18.555,-6.348,43.945
64.941,37.109,-103.516,-4.883,9.277
46.875,38.086,-178.223,-4.883,-9.766
31.738,42.48,-229.492,-6.836,0
43.457,47.363,-126.953,-9.766,31.25
64.941,47.852,28.32,-4.883,69.824
62.988,43.457,-71.289,0.488,40.039
35.156,41.016,-207.52,-2.441,-0.488
23.926,38.086,-191.406,-3.418,83.984
31.738,35.156,-83.496,-3.418,124.023
46.387,36.133,4.395,5.371,10.254
52.734,40.039,-36.133,16.113,3.906
36.133,40.527,-160.645,9.277,0.488
25.391,38.086,-179.688,6.348,-49.805
37.109,38.086,-160.645,4.883,-41.016
51.27,42.969,4.883,5.859,-12.695
53.223,41.992,63.477,12.207,13.672
42.48,41.504,-110.84,5.371,4.883
23.438,42.969,-177.246,-5.859,-8.789
31.25,41.992,-128.906,-0.488,20.508
59.57,42.48,7.324,1.953,23.438
65.918,41.992,16.602,1.953,7.812
45.41,43.945,-102.051,2.93,32.715
38.574,46.875,-180.176,4.883,46.387
36.621,42.969,-135.254,-1.953,21.973
41.504,38.574,8.301,-9.766,32.227
55.664,38.574,-26.367,1.465,-6.836
42.969,36.621,-102.051,2.441,15.137
21.484,35.645,-139.648,-5.859,47.363
22.461,33.691,-155.273,-5.859,16.113
44.434,36.621,-30.273,-3.418,12.695
58.105,38.086,3.418,2.441,35.645
47.363,35.156,-96.191,5.859,61.035
32.227,38.086,-139.16,1.465,0.488
27.344,39.551,-132.812,-4.883,32.227
42.969,39.062,-35.156,-2.441,80.566
57.617,36.133,37.109,3.418,24.414
50.781,33.691,-68.359,-2.93,25.391
35.645,42.969,-138.184,-4.395,31.25
29.297,42.969,-210.938,-3.906,3.906
49.316,36.621,-129.883,-7.812,-22.949
60.547,35.645,75.684,-3.906,-12.695
48.34,31.738,-33.203,-0.977,17.578
30.762,29.297,-149.414,-4.395,0
24.414,32.227,-175.781,-9.766,18.555
35.156,34.18,-97.168,-12.207,-2.93
45.41,30.273,83.496,-9.277,-11.23
35.645,31.25,-6.348,-7.324,25.879
24.414,37.109,-149.902,-6.348,-21.973
13.672,37.109,-189.941,-2.441,-42.48
20.508,36.133,-86.914,-1.953,28.809
49.805,39.062,6.836,4.395,10.254
52.734,34.18,-36.621,5.859,-44.922
27.344,31.738,-107.91,-1.465,39.062
22.461,34.668,-188.477,-8.301,33.691
29.297,34.668,-128.906,-11.23,17.09
31.738,33.203,13.672,-6.348,18.555
32.227,33.203,10.742,-4.883,4.883
32.227,34.18,-113.281,-9.277,-5.371
27.832,33.203,-165.527,-12.695,11.719
32.227,32.227,-170.898,-10.254,33.691
54.199,30.273,-8.301,3.906,-0.488
61.035,31.25,53.711,1.465,-4.883
51.27,32.227,-93.262,0,49.805
33.203,34.668,-164.551,9.766,87.891
35.645,35.645,-133.301,9.766,19.531
52.246,32.715,-6.348,10.742,18.066
54.688,34.668,-31.25,1.953,77.148
42.48,34.668,-103.027,1.953,38.086
21.973,32.715,-116.211,1.465,60.547
21.484,31.25,-201.172,-5.859,49.316
39.551,31.25,-54.199,-2.93,20.996
52.734,29.297,72.754,-0.488,15.137
41.504,32.715,-78.125,-2.93,-30.762
19.043,30.762,-148.926,-7.324,24.902
7.812,23.926,-159.18,-14.648,62.012
20.02,25.879,-42.48,-12.695,28.809
34.668,28.32,12.207,-6.348,23.926
32.227,30.273,-96.191,-2.93,34.668
22.949,34.668,-189.453,-3.906,4.395
24.414,36.621,-193.848,-10.742,22.461
29.785,36.133,-76.172,-15.137,23.926
38.574,36.621,82.031,-7.324,-19.043
36.621,33.691,-2.93,-0.977,96.191
20.02,34.18,-187.012,-4.395,66.406
23.926,36.133,-216.797,-5.371,-4.395
33.203,28.809,-54.688,-7.324,64.941
43.457,30.273,27.832,-6.348,52.734
52.734,38.574,-44.434,0.977,52.734
34.18,34.18,-151.367,-2.441,72.266
14.648,32.715,-203.125,-14.648,20.02
26.367,36.133,-104.492,-8.301,51.27
44.922,36.133,23.438,-3.906,96.68
45.41,37.598,-13.184,-5.371,21.484
29.297,38.574,-103.516,-6.836,45.898
18.066,38.086,-189.453,-13.184,61.035
30.762,34.668,-115.234,-14.648,16.113
47.852,32.227,53.711,-11.719,37.598
42.969,31.738,-19.043,-2.93,74.219
24.414,33.691,-139.648,-2.441,30.273
11.719,32.715,-161.621,-9.277,6.836
10.254,32.227,-145.02,-14.16,26.855
30.762,36.621,24.902,-6.348,40.527
43.457,38.086,20.508,-2.441,60.059
29.297,37.109,-78.613,-9.766,55.664
14.648,34.668,-109.863,-11.23,89.355
22.461,33.691,-185.547,-8.789,54.199
41.016,36.133,-30.273,-5.371,6.836
45.41,36.133,70.312,-0.977,10.254
27.832,31.25,-79.59,-3.418,21.973
12.695,33.203,-166.016,-7.812,9.277
10.742,32.715,-118.164,-9.766,-5.859
27.832,30.762,-1.465,-1.953,-28.32
43.457,35.156,15.625,4.883,-32.227
32.715,32.227,-80.078,-1.465,29.297
13.184,30.273,-158.203,-2.441,49.805
2.93,31.25,-168.945,2.441,22.949
21.973,32.715,-12.207,-2.93,38.574
40.527,36.133,55.664,-1.465,21.484
27.832,37.598,-63.965,3.906,-20.508
6.836,33.203,-109.375,-1.953,14.648
18.555,30.273,-191.895,-0.977,24.902
41.016,28.32,-71.289,4.883,13.184
45.41,27.832,116.211,4.883,59.57
35.645,33.203,-26.367,6.836,100.098
27.832,37.109,-150.879,10.742,35.156
27.832,38.086,-162.598,12.207,44.434
30.273,36.133,-63.477,13.184,102.539
48.34,29.785,37.598,19.043,14.16
71.289,25.879,5.859,17.09,2.93
46.387,26.855,-61.035,15.625,53.711
26.367,27.832,-172.852,13.672,40.039
42.48,28.32,-124.023,10.742,-13.184
52.246,25.391,109.863,13.184,25.391
52.734,24.902,35.156,9.277,22.461
35.156,25.879,-100.098,6.836,-19.043
22.949,26.367,-163.086,8.301,-10.742
32.227,30.762,-79.102,6.836,-31.738
45.898,31.738,68.848,4.883,4.883
47.363,29.297,11.23,5.371,42.48
29.297,32.227,-72.754,5.371,42.969
12.695,31.25,-101.562,2.441,54.199
15.625,26.367,-110.352,0.977,33.203
37.109,26.367,58.105,-2.441,35.645
44.434,27.344,88.867,1.465,50.781
23.438,28.32,-71.289,3.906,-30.762
6.836,25.879,-99.609,2.441,22.949
11.719,23.926,-58.594,-2.93,96.68
28.32,26.367,32.227,-6.348,23.926
36.621,24.902,42.969,-7.324,-13.672
21.484,26.855,-62.5,-4.395,21.973
7.812,28.809,-157.227,-5.859,47.852
13.672,30.273,-122.07,-4.395,84.473
29.297,29.297,41.016,1.953,78.125
49.316,27.832,82.031,3.418,43.457
51.27,31.738,-33.691,3.418,68.359
24.902,32.715,-135.254,0.977,20.02
18.555,29.785,-126.953,-4.883,-11.23
34.668,28.32,33.691,-8.301,19.043
34.668,33.203,67.871,-7.812,10.742
20.02,37.109,-38.574,-6.348,6.348
9.766,38.574,-122.559,-10.742,-22.461
8.789,37.598,-130.371,-8.301,8.789
16.602,32.227,-37.109,-4.395,74.707
29.297,33.203,59.57,-10.254,32.715
27.832,37.598,1.465,-9.277,-22.461
16.602,34.18,-96.68,-8.789,-23.438
7.324,31.738,-171.875,-14.16,-11.23
17.09,30.762,-63.477,-13.184,20.02
37.598,30.762,125.488,-11.719,58.105
43.945,32.227,4.395,-2.93,14.16
34.668,32.715,-132.324,-1.465,-35.156
22.461,36.133,-146.973,-5.371,9.277
33.691,33.691,-37.598,-0.488,6.836
46.875,27.832,51.758,5.371,13.672
40.039,29.785,-41.504,7.812,31.738
29.785,29.297,-96.191,10.742,56.641
13.184,29.785,-119.141,6.348,70.312
19.043,32.227,-124.512,5.859,-3.418
46.387,37.598,81.543,13.672,0.977
57.617,40.039,59.57,17.578,56.152
42.48,35.645,-106.934,13.184,-16.602
27.832,34.668,-132.812,9.766,6.836
28.32,37.598,-83.984,1.465,70.312
48.34,39.062,16.602,0,28.809
49.805,35.645,-30.762,0.977,-5.371
22.949,38.574,-143.555,-3.418,20.02
21.973,38.086,-218.262,-7.812,52.246
21.484,34.668,-139.16,-11.719,37.598
27.344,34.18,1.953,-7.812,17.09
45.898,36.133,-33.691,-6.836,20.02
32.227,38.086,-136.23,-9.766,-13.184
9.277,33.203,-188.965,-11.23,23.926
15.625,37.598,-183.105,-12.207,0.488
37.598,41.016,-18.066,-7.324,-40.039
48.828,37.109,25.879,-0.977,54.199
44.922,34.18,-124.512,-2.441,49.316
26.855,35.156,-187.5,-4.395,26.367
22.461,34.668,-241.211,-6.836,-41.504
38.574,34.668,-88.379,-6.836,-46.387
47.852,34.668,37.598,-2.441,33.203
40.039,33.203,-79.102,-3.906,47.363
25.879,37.598,-127.441,-2.93,27.832
18.066,39.551,-212.891,-5.859,34.18
30.273,34.18,-86.426,-11.719,87.891
50.293,28.809,66.895,-7.812,71.289
42.969,24.414,-72.266,-5.371,-25.391
19.531,24.902,-148.926,-10.254,1.465
17.578,30.273,-194.824,-15.137,21.484
34.18,32.715,-78.613,-9.766,-13.672
44.922,32.715,6.348,-3.418,14.16
38.574,30.273,-120.605,-2.93,-10.742
26.855,31.738,-138.672,-9.277,-11.719
16.602,35.156,-167.969,-16.113,39.062
29.785,32.227,-120.117,-11.23,46.875
50.293,24.902,26.855,-4.395,33.203
54.199,26.367,-24.414,-2.441,43.945
39.551,29.297,-128.418,-2.93,21.484
24.414,29.297,-195.801,-10.742,43.945
32.227,27.832,-141.113,-14.16,53.223
50.293,27.832,53.223,-7.324,53.223
58.105,31.25,0,-2.441,64.941
43.945,31.25,-142.09,-6.836,16.113
27.344,33.691,-205.078,-8.789,11.719
30.762,33.691,-157.715,-9.766,-7.812
42.969,32.715,46.875,-10.254,7.324
49.316,33.691,37.598,-2.93,72.754
32.715,28.809,-134.277,-3.906,19.043
14.16,25.879,-181.152,-9.277,-2.441
21.973,25.391,-151.367,-8.789,32.715
37.598,25.879,-0.488,-7.812,1.465
41.504,25.879,18.066,-8.301,4.395
30.762,23.926,-111.816,-6.836,18.555
14.648,20.996,-176.758,-11.719,8.789
13.672,18.066,-149.414,-14.648,-4.883
36.133,22.949,-35.156,-5.371,-6.836
48.828,25.879,10.254,4.395,16.113
29.297,23.438,-64.453,1.953,-4.883
13.672,27.344,-155.762,-2.93,-2.441
19.043,27.832,-156.25,-7.324,-5.859
31.738,28.32,-8.789,-9.766,-7.324
45.898,33.203,44.434,-0.977,69.824
35.156,31.25,-67.871,-4.883,106.445
17.578,29.785,-186.035,-10.254,37.598
22.949,29.785,-184.082,-10.254,8.789
42.969,30.762,-9.277,-11.23,64.941
51.27,29.297,24.902,-13.184,43.945
52.246,28.32,-100.098,-13.672,-3.418
37.598,33.203,-162.598,-15.137,-5.859
13.672,30.273,-174.805,-17.578,26.855
30.273,26.367,-52.246,-11.23,30.273
54.688,28.809,51.758,-7.324,-9.766
52.734,33.691,-44.922,-2.93,39.062
28.32,30.762,-154.785,-4.395,28.809
15.137,28.32,-220.215,-13.184,-18.066
28.32,33.691,-171.387,-13.672,12.695
45.41,33.203,35.645,-11.719,15.625
43.945,30.273,15.625,-10.742,43.457
26.855,32.227,-149.902,-8.301,46.387
18.555,34.18,-224.609,-13.672,-22.461
32.715,34.18,-106.445,-17.09,20.02
49.805,30.762,90.332,-12.207,112.793
41.992,28.32,-1.953,-8.301,95.703
19.043,28.809,-154.785,-11.23,-6.348
-1.465,23.926,-186.523,-15.137,-30.762
4.395,24.902,-101.562,-11.719,40.039
28.809,27.344,24.902,-5.859,68.359
41.504,25.391,-19.531,-2.93,85.938
28.809,24.902,-132.812,-6.836,60.059
10.254,24.414,-193.359,-11.23,7.812
16.602,29.297,-139.648,-13.672,5.859
34.668,29.785,-0.977,-12.695,62.012
36.133,28.809,-21.484,-14.648,99.121
27.832,32.715,-108.398,-18.066,83.008
18.066,30.762,-154.297,-19.043,54.199
18.066,32.227,-127.93,-18.555,61.035
41.504,33.203,-13.672,-18.066,45.898
56.152,31.738,-19.531,-15.137,-32.227
47.852,36.621,-92.285,-6.348,-43.457
35.156,26.367,-175.293,-11.23,-36.621
37.109,22.461,-161.133,-12.207,-85.449
48.828,29.785,8.301,-0.488,-51.27
53.711,28.809,23.438,1.953,-9.766
45.898,27.344,-102.051,0.488,26.855
25.879,28.809,-158.203,-1.953,41.016
26.855,34.18,-193.848,-0.977,-22.949
49.805,36.133,-98.145,2.441,-13.672
56.641,36.621,92.285,5.371,69.824
47.852,33.691,6.836,4.395,62.988
43.945,33.691,-142.578,4.395,29.297
40.039,37.109,-164.062,5.371,39.551
45.898,32.715,-54.688,6.348,29.785
62.988,30.762,20.996,12.207,29.785
60.547,32.227,-52.246,11.719,28.32
40.039,30.762,-154.785,4.883,18.066
30.273,26.855,-229.492,4.883,11.719
37.109,30.762,-85.449,3.906,55.664
56.152,36.621,95.215,2.93,19.531
63.477,33.691,8.789,3.418,35.156
45.898,28.32,-135.254,-3.418,67.871
29.785,28.32,-194.824,-8.301,8.301
46.875,31.738,-117.676,-6.348,-22.949
62.988,28.809,-9.766,-3.906,-7.812
60.547,29.785,-3.906,0.488,24.414
50.293,35.156,-87.402,2.441,54.688
38.574,36.133,-186.523,-1.953,47.363
48.828,40.039,-133.789,0.977,-10.254
62.988,40.527,-12.695,4.883,-4.395
63.965,37.598,-17.578,2.441,2.93
45.898,35.156,-62.012,2.441,21.973
30.762,35.645,-152.832,0.488,60.547
38.574,37.598,-188.477,-5.371,25.879
53.711,38.086,24.414,-1.465,13.672
55.176,33.691,62.988,7.812,50.781
37.598,26.367,-105.957,2.93,58.105
17.578,30.273,-180.176,-3.418,49.805
22.949,35.645,-143.555,-4.883,3.418
40.527,33.203,23.438,-2.93,10.742
50.293,32.227,5.371,6.348,49.805
44.922,34.18,-145.508,7.812,-21.484
28.32,34.18,-132.812,-0.488,-15.137
28.32,33.203,-151.367,-5.859,31.738
41.016,33.691,-28.809,-2.93,10.254
53.711,32.227,87.891,7.812,16.602
40.039,29.785,-62.988,11.23,12.695
12.207,27.832,-158.691,6.836,31.25
19.043,31.25,-141.113,4.395,62.012
35.645,30.273,-17.09,4.883,73.242
42.969,27.344,18.555,8.301,97.168
36.621,28.809,-65.43,14.16,75.195
14.648,23.438,-185.059,11.719,35.645
5.859,21.484,-235.352,10.254,21.484
20.996,26.367,-63.477,5.371,53.223
34.18,25.391,67.871,-1.953,29.297
41.504,26.855,-48.34,-0.977,2.441
38.574,29.785,-142.578,-3.906,-9.277
22.461,27.344,-189.941,-11.23,6.348
25.391,24.902,-81.055,-15.137,4.395
44.434,28.32,60.547,-13.184,44.922
38.574,29.785,-46.875,-6.348,51.758
10.254,24.414,-138.672,-6.836,0
-2.441,21.973,-194.824,-11.23,19.043
11.719,24.414,-132.324,-4.395,-6.348
29.297,25.879,6.348,0.977,-5.859
32.715,27.832,4.395,1.953,62.012
31.738,31.738,-103.027,6.836,71.289
19.531,21.484,-189.453,3.418,57.617
14.648,17.578,-138.184,-2.441,59.082
33.691,26.855,45.41,4.395,41.016
48.34,27.344,27.344,13.184,5.371
32.715,27.832,-100.586,12.207,-1.953
17.09,32.715,-164.551,9.277,29.785
24.414,33.203,-130.371,6.348,-3.418
33.691,31.25,21.484,0.488,-47.363
41.504,30.762,16.113,4.395,-26.855
32.227,30.273,-123.047,8.789,-46.875
13.672,31.738,-158.691,3.418,-61.523
14.648,27.832,-129.883,2.441,7.812
28.809,24.902,10.742,-0.488,37.598
34.18,26.855,27.344,2.441,-15.137
30.762,27.344,-90.332,8.301,-30.273
19.531,27.344,-120.117,5.371,2.93
23.438,28.32,-114.746,3.418,-3.906
39.551,26.855,16.602,7.812,10.742
46.387,24.902,22.949,9.766,21.484
42.969,24.902,-61.035,8.301,0.488
33.691,28.809,-144.043,10.254,23.438
32.227,30.273,-174.316,8.301,11.719
42.969,30.273,-8.301,8.301,16.602
54.199,33.691,56.641,14.648,-31.25
50.781,33.203,-35.645,19.531,-7.324
36.621,30.273,-117.676,16.602,83.496
29.785,31.738,-213.867,7.324,45.41
41.504,34.668,-94.238,7.324,-8.301
56.152,35.156,60.547,14.648,18.066
52.734,33.203,-32.715,13.184,39.551
35.156,31.25,-146.484,5.371,33.203
24.902,30.273,-170.898,2.441,20.996
34.18,31.25,-55.664,6.836,62.012
47.852,31.25,-18.555,7.324,59.082
50.781,33.691,-65.43,8.789,30.273
35.156,35.645,-95.703,2.93,37.598
27.832,37.109,-221.191,1.465,4.395
45.41,38.086,-142.578,6.348,0
70.801,35.156,82.52,17.578,54.688
64.453,32.715,-6.348,20.02,52.734
27.344,30.762,-128.906,0,78.613
12.207,30.273,-209.961,-2.93,78.613
27.344,28.809,-151.855,-4.883,28.32
52.734,29.785,27.344,-4.883,54.199
57.129,30.273,-16.602,0,24.902
36.133,26.855,-145.508,-0.488,35.645
18.555,27.344,-176.27,-4.883,88.867
24.902,25.391,-165.527,-2.93,56.641
47.852,26.367,-5.371,0,6.348
66.406,45.41,20.02,11.719,-24.414
65.43,55.664,-84.473,24.902,28.32
54.199,53.223,-174.316,24.414,53.711
53.711,54.199,-125.977,24.414,16.602
68.848,52.734,41.992,30.762,70.801
83.984,52.246,12.695,34.668,54.688
77.148,56.152,-91.309,34.668,-20.508
65.918,58.594,-155.273,30.273,27.344
55.664,51.27,-151.855,21.973,21.484
62.5,48.828,-6.836,23.926,13.184
78.125,47.363,29.785,30.762,30.762
65.43,42.48,-79.102,27.344,-16.602
43.457,41.504,-144.531,22.461,41.992
40.039,43.945,-221.191,16.602,25.879
57.129,47.363,-74.707,17.578,-22.949
59.57,39.062,82.52,18.066,48.828
49.805,36.621,-61.523,16.602,17.578
38.086,38.574,-183.594,15.625,11.23
30.273,33.203,-182.617,9.277,36.133
39.551,34.668,-67.383,6.348,25.879
53.711,38.086,-45.898,6.836,15.625
45.41,36.133,-75.195,0,16.602
23.926,34.668,-150.391,-5.371,62.012
19.531,33.203,-270.508,-6.836,47.363
33.691,31.25,-124.023,-5.859,20.02
48.34,35.645,52.734,1.465,-9.277
44.434,37.109,-48.828,4.395,19.043
24.414,37.109,-169.434,1.953,47.363
17.578,35.645,-223.145,-4.883,21.973
28.32,35.645,-104.004,-6.348,83.008
40.039,35.156,-8.301,-3.418,47.852
40.039,34.668,-82.52,-2.441,-55.664
30.273,34.668,-156.738,-3.418,-4.395
18.066,35.156,-188.965,-5.371,52.734
20.02,36.621,-117.188,-7.324,15.137
40.527,32.227,18.066,-8.301,-18.555
42.969,27.832,-34.18,-7.812,25.391
29.785,34.668,-149.414,0,29.297
17.09,35.156,-199.707,-0.977,20.02
19.043,30.762,-171.875,-8.301,31.25
42.48,31.738,14.648,-3.418,40.527
56.152,28.32,-4.883,7.324,51.27
41.504,25.391,-140.137,7.324,26.367
25.391,30.273,-212.891,6.348,-27.832
30.273,32.227,-157.715,6.836,0.488
45.41,29.785,-5.859,6.348,52.734
50.781,27.832,-3.906,13.184,41.504
37.598,26.855,-125.977,13.184,1.465
19.043,25.879,-166.504,5.859,25.879
12.695,24.902,-219.238,2.441,43.945
26.367,24.902,-66.895,3.418,-28.809
38.086,26.855,45.41,0.977,56.152
31.738,28.809,-102.051,0.977,107.91
20.508,24.902,-173.34,-3.418,49.805
17.09,26.367,-152.344,-8.789,46.875
35.156,30.762,-39.551,1.953,49.316
41.992,31.25,-39.551,7.812,-3.418
31.25,35.645,-68.359,5.859,4.883
21.484,40.039,-119.629,3.906,12.207
11.719,35.645,-235.84,-7.324,-15.625
22.461,36.621,-81.055,-4.883,15.137
43.457,38.086,87.402,4.395,63.477
34.18,32.715,-59.57,0,1.465
19.531,32.227,-137.695,-0.977,27.832
23.926,34.668,-175.293,1.953,54.688
39.062,33.203,-86.914,3.906,1.953
49.316,31.25,8.789,3.906,17.09
46.875,29.785,-54.688,4.395,0.977
36.133,29.785,-145.508,7.324,3.418
22.949,29.297,-210.938,2.441,40.527
33.203,26.855,-104.004,-0.488,27.832
61.035,31.25,93.75,3.418,28.32
63.965,32.227,-13.184,6.348,21.484
40.527,35.645,-126.465,12.207,-10.742
27.344,36.133,-194.336,6.348,2.93
27.344,31.25,-129.395,-2.93,-47.363
34.668,34.18,24.902,-3.418,-41.992
40.039,35.645,-35.645,-1.465,-5.859
26.855,34.668,-143.066,-0.977,-40.039
12.207,34.668,-194.824,-3.906,9.277
21.484,33.691,-151.855,-4.883,67.871
37.109,32.227,-42.48,-2.441,34.668
41.016,35.156,-16.113,0,-33.203
29.785,36.621,-83.496,-3.906,-17.578
11.719,38.574,-191.406,-4.883,18.555
16.602,39.551,-202.637,-3.418,23.926
33.691,31.25,-3.418,-2.93,37.598
40.527,30.273,37.109,4.395,20.996
31.738,33.691,-105.957,3.418,21.484
12.695,33.691,-191.895,-3.906,36.133
15.625,33.203,-154.785,-3.906,6.836
34.668,33.203,-8.301,-0.488,38.086
41.992,32.715,-33.691,4.883,56.152
27.832,33.203,-90.332,5.859,14.648
8.301,35.156,-168.457,1.465,27.832
12.207,38.086,-168.945,-0.977,1.953
39.551,39.062,4.395,0.488,10.742
50.781,36.133,23.438,4.395,52.734
39.551,37.598,-63.965,8.301,125
29.297,36.621,-188.477,8.301,46.875
25.391,32.715,-237.305,3.418,-59.082
40.039,35.156,-56.152,7.812,54.199
54.688,36.133,51.758,13.672,41.016
50.293,34.18,-73.73,11.719,27.344
28.32,35.645,-196.289,13.672,38.574
15.625,33.691,-230.469,8.789,21.973
21.484,30.762,-69.336,2.93,22.461
38.086,34.668,87.402,5.371,48.828
41.992,38.086,-38.574,8.789,65.918
23.438,37.598,-157.715,6.348,24.902
12.207,35.156,-175.293,2.441,40.527
19.531,32.227,-79.102,4.395,77.148
43.945,36.133,3.906,15.625,74.707
60.059,39.551,-47.363,18.066,29.297
40.527,36.133,-119.629,9.277,61.035
24.902,36.133,-201.66,4.883,73.73
29.785,35.645,-148.438,6.836,11.719
37.109,29.785,18.066,8.789,-26.367
44.434,30.273,5.859,7.324,-2.441
35.645,32.715,-109.375,3.418,27.344
21.484,30.273,-215.332,-3.418,51.27
22.949,32.227,-149.414,-3.418,43.457
46.387,34.668,23.438,5.859,50.781
54.688,36.133,-63.477,12.207,53.223
36.133,37.109,-129.395,5.859,-0.488
26.367,33.691,-167.969,-2.93,10.742
25.879,29.785,-144.531,0.977,14.648
42.48,26.367,1.953,8.301,47.852
52.246,23.438,-61.523,12.207,19.043
32.227,25.391,-114.746,13.672,-5.371
15.625,29.785,-148.438,7.812,31.738
14.16,28.809,-191.895,3.418,41.016
30.273,29.785,-18.555,0,56.152
38.574,28.809,79.102,-2.441,17.09
29.785,26.367,-75.684,-0.488,4.395
19.531,29.297,-178.223,0.977,31.25
8.301,30.273,-161.133,-5.859,-14.16
21.484,24.902,-26.367,-8.789,-53.711
48.828,30.273,0,-3.906,-41.016
41.992,33.691,-87.402,-7.324,13.672
10.254,28.809,-167.48,-9.277,34.668
4.883,29.297,-195.801,-12.695,45.41
25.391,29.785,-36.621,-11.719,85.938
41.504,30.273,59.082,-4.395,28.809
33.691,30.762,-72.754,-0.977,-23.926
10.742,29.297,-168.457,-2.93,5.371
8.301,29.297,-189.941,-8.789,5.371
33.203,34.668,-54.688,-2.93,32.227
41.016,35.156,8.789,-1.465,43.945
20.996,32.715,-63.965,-4.883,27.344
4.395,29.785,-161.133,-8.301,-10.742
-0.977,28.32,-206.543,-15.137,6.836
6.836,26.367,-112.305,-17.09,25.879
19.531,31.738,-3.906,-11.719,16.602
19.043,33.691,-19.043,-15.625,40.039
-7.324,28.809,-105.957,-34.18,28.32
-12.695,31.738,-227.051,-34.18,21.484
12.207,30.273,-122.559,-20.996,77.148
6.836,29.785,2.93,-37.109,43.457
-15.137,25.879,-42.48,-53.711,14.648
-26.855,25.879,-120.117,-56.152,46.875
-48.828,29.785,-241.211,-70.801,31.738
-52.734,27.344,-161.133,-75.195,22.949
-38.086,30.273,51.27,-78.125,25.879
-43.945,29.297,-33.691,-88.867,50.781
-65.918,26.855,-114.746,-94.238,23.438
-83.496,28.809,-170.41,-106.445,35.156
-91.797,25.879,-205.566,-126.465,24.414
-76.66,23.926,1.953,-131.836,7.812
-64.941,27.832,20.02,-124.512,41.504
-80.078,27.344,-127.93,-130.859,42.48
-107.91,32.715,-206.543,-148.438,16.113
-117.676,39.062,-151.855,-160.645,70.312
-91.309,34.668,-35.645,-146.973,52.734
-91.797,32.227,-24.902,-150.879,-5.859
-119.141,33.691,-124.023,-166.504,-22.461
-142.578,33.203,-223.633,-169.922,-3.418
-144.531,33.691,-212.402,-167.48,31.738
-129.883,34.18,-26.367,-169.922,41.992
-109.863,38.574,44.922,-169.434,38.086
-119.141,45.41,-92.773,-167.969,31.738
-143.555,44.922,-195.312,-169.434,71.777
-137.695,43.457,-193.359,-170.898,28.32
-114.258,45.898,-21.484,-158.203,-0.488
-100.098,46.387,20.508,-147.949,53.711
-100.098,49.316,-82.52,-154.785,48.34
-107.422,54.199,-178.711,-153.809,12.695
-101.074,51.27,-188.477,-139.648,-27.344
-82.031,54.688,-89.355,-136.23,-55.176
-55.176,58.105,21.973,-128.906,-29.785
-46.387,60.059,-7.324,-110.352,31.25
-57.617,57.617,-111.816,-108.887,41.504
-56.641,54.199,-224.121,-104.004,48.34
-54.688,55.664,-104.492,-103.516,81.543
-26.367,55.664,85.938,-91.797,98.145
-4.395,55.664,-28.809,-66.406,95.215
-18.066,54.199,-159.18,-61.523,37.598
-12.695,52.246,-189.941,-49.316,-7.324
1.465,47.363,-69.824,-35.645,39.062
13.184,45.41,25.391,-25.391,35.645
20.996,44.434,-47.852,-6.348,50.781
15.137,48.34,-74.707,7.812,100.586
18.066,48.828,-174.805,13.672,93.75
37.598,45.41,-139.16,20.996,33.203
62.012,43.945,86.426,35.645,21.484
65.918,39.062,35.156,43.457,21.484
56.152,37.109,-89.844,41.992,7.812
51.758,37.598,-176.758,49.316,19.531
62.012,39.062,-124.512,59.57,-20.02
84.961,40.039,35.645,65.918,-31.738
103.027,43.457,4.883,74.707,27.344
96.191,41.504,-100.098,78.125,-8.789
84.961,40.527,-157.715,80.078,-22.949
97.168,44.922,-91.797,86.426,-45.898
119.629,41.016,55.664,84.473,-40.039
127.93,38.574,41.992,88.379,-7.324
118.652,42.969,-42.969,96.191,-1.953
102.051,41.016,-121.582,92.773,46.875
97.656,39.551,-164.551,88.867,17.09
109.863,34.668,26.367,85.938,51.758
123.047,28.809,91.797,90.82,57.617
114.746,31.25,-43.945,94.727,34.18
94.238,34.18,-146.484,90.332,23.926
89.355,31.25,-133.301,82.031,-37.598
104.004,32.715,5.371,83.984,23.438
116.699,33.691,47.852,94.727,88.379
114.746,36.621,-40.039,93.262,23.438
102.051,37.109,-89.355,87.891,-17.09
98.145,32.715,-188.965,78.613,4.883
112.305,34.18,-47.852,77.637,1.953
122.07,35.645,120.117,89.844,37.598
116.699,34.18,-31.738,91.309,8.301
97.656,35.645,-112.305,83.984,-57.617
81.543,37.598,-116.211,75.684,13.672
99.609,38.574,-21.973,77.148,56.641
118.164,34.668,32.227,78.613,25.391
109.375,34.668,-47.363,77.148,56.641
87.402,35.156,-116.699,69.336,-7.812
76.66,35.156,-172.852,63.477,-51.758
85.449,35.156,-82.52,61.035,21.484
98.633,28.32,104.98,58.594,12.207
108.398,32.715,25.879,65.43,0.488
99.609,38.574,-99.609,67.383,3.418
85.938,36.133,-160.645,58.105,32.227
85.938,34.668,-85.449,55.176,62.012
99.609,35.645,27.832,62.012,7.324
96.191,35.645,10.254,59.082,-8.301
83.008,35.645,-86.426,58.105,35.156
68.359,34.18,-203.125,54.199,17.09
67.383,30.762,-85.938,45.898,-3.418
88.379,27.832,71.777,42.48,35.645
92.773,28.809,16.602,51.758,73.242
80.566,32.715,-82.52,59.082,64.941
66.406,38.086,-174.316,48.34,32.715
62.5,38.086,-156.738,40.039,39.551
79.59,35.156,35.645,45.41,29.785
95.215,33.203,50.781,49.805,20.02
92.285,29.785,-73.73,43.457,24.902
71.289,31.25,-173.828,37.109,-15.137
70.801,35.645,-144.043,34.18,3.418
84.473,36.133,-34.18,33.203,3.418
82.52,35.156,19.043,27.832,2.441
73.73,35.645,-30.273,25.879,60.547
59.082,39.062,-129.395,30.762,41.992
42.48,37.109,-206.055,23.438,26.855
50.293,32.227,-44.922,20.996,21.973
70.312,33.691,82.031,22.949,-12.695
63.477,33.691,-38.086,25.391,8.301
42.48,32.715,-176.27,21.484,4.395
37.598,33.691,-149.414,16.602,38.086
56.641,34.668,-15.137,22.461,20.996
77.637,33.203,29.785,27.832,-4.883
76.172,32.715,-48.828,32.227,75.195
58.105,33.691,-145.02,33.691,55.176
46.875,36.133,-200.195,33.203,9.766
56.152,34.668,-82.52,30.273,-4.883
75.684,31.738,78.613,35.156,10.742
80.566,36.621,-23.926,41.992,42.969
65.918,39.551,-133.789,37.598,-17.09
55.664,41.504,-209.961,32.227,-41.992
63.965,42.48,-95.215,33.691,-12.207
81.543,46.875,62.012,34.668,7.324
104.492,56.152,-14.648,36.133,55.176
97.168,56.152,-143.555,43.945,40.527
49.805,48.828,-206.543,16.113,6.836
34.18,44.922,-78.125,-2.93,26.367
57.617,40.527,65.918,8.789,70.312
62.988,41.504,19.531,9.277,115.234
50.293,42.969,-76.66,7.812,97.656
34.18,42.969,-197.754,2.441,44.434
42.48,44.922,-128.906,-2.93,1.465
59.57,40.039,54.199,2.93,22.949
64.941,37.109,24.414,6.348,58.594
55.664,32.715,-91.797,-0.488,31.25
34.668,33.203,-191.895,-2.441,-14.16
35.156,35.156,-143.066,-3.906,-2.93
54.688,32.227,-5.859,-3.906,-1.465
71.289,34.18,1.953,0.977,-17.09
60.547,36.133,-69.336,11.23,-14.16
37.109,33.691,-112.305,8.789,13.672
44.434,39.062,-176.758,0.488,67.871
63.477,40.039,-13.184,0,91.309
70.312,33.691,94.727,0.488,68.848
66.895,33.691,-75.684,5.859,-16.113
47.363,30.762,-158.203,0.977,-38.086
37.598,30.273,-118.652,-7.324,42.48
52.734,31.25,5.859,-9.277,41.504
62.988,30.762,18.555,-7.324,7.324
48.828,29.785,-90.332,-0.488,-21.973
33.203,32.715,-110.84,2.441,-7.324
26.855,32.715,-138.672,-3.906,47.363
33.203,30.273,-52.246,-6.836,58.105
45.898,32.227,76.66,-1.465,47.852
44.434,32.715,-4.395,1.953,67.383
23.438,32.715,-138.672,-4.883,26.855
20.02,32.715,-157.715,-3.418,-20.02
39.551,35.645,-16.113,-0.977,12.695
50.781,34.18,47.852,-2.441,45.898
43.457,29.785,-22.949,0.488,22.461
25.391,25.391,-122.559,-10.254,-11.719
22.949,30.762,-219.238,-11.23,0
29.297,32.715,-90.332,-2.93,45.898
41.504,24.414,105.469,-5.859,24.414
46.387,24.414,15.137,-5.371,4.883
37.109,28.809,-90.332,-3.906,57.129
22.461,27.344,-172.852,-5.859,89.355
25.879,25.879,-119.629,-10.254,45.41
44.434,30.762,48.828,-8.301,45.41
44.434,31.738,-3.418,-8.789,56.152
31.738,27.832,-122.559,-6.836,-13.672
27.344,27.344,-182.129,-10.254,12.207
28.32,30.273,-112.793,-16.602,50.781
36.621,29.297,12.207,-17.09,49.805
46.875,31.25,5.371,-19.531,61.523
40.527,32.715,-70.801,-20.996,15.625
28.32,26.367,-178.223,-18.555,21.484
25.879,31.25,-131.836,-14.648,54.199
43.945,31.25,33.691,-14.16,33.691
57.617,28.809,-17.09,-8.789,-7.324
40.527,31.25,-100.098,-11.23,-12.207
23.926,33.691,-146.973,-15.625,68.359
28.32,35.645,-184.082,-11.719,83.496
42.969,28.32,16.113,-5.371,60.547
46.387,26.367,41.504,-6.348,48.34
40.039,30.273,-119.141,-9.766,41.016
16.113,28.32,-157.715,-10.254,-13.672
7.812,29.297,-170.898,-3.906,-27.344
37.109,33.691,-33.691,0.977,-19.531
62.012,34.668,74.219,0.977,-50.781
56.641,34.668,-40.039,2.441,-16.113
39.062,32.715,-149.414,5.371,0
30.273,28.32,-149.902,4.395,-9.277
39.062,28.809,-20.996,5.371,4.395
49.805,25.391,18.066,7.324,-43.945
41.016,24.902,-44.922,9.766,-39.062
27.832,28.809,-137.695,7.324,12.207
19.043,25.391,-208.008,0.488,18.555
25.879,29.785,-58.594,0.488,1.953
45.41,31.738,72.754,8.789,-11.23
39.551,24.414,-23.926,9.277,36.133
26.367,24.414,-134.277,0.488,0.488
19.531,25.391,-203.125,-7.812,-4.395
34.668,25.391,-86.914,-7.812,39.551
50.781,26.367,39.551,-3.906,-10.742
54.199,26.367,5.371,-8.301,49.805
48.34,28.32,-111.328,-7.812,60.547
20.508,25.391,-199.707,-13.184,-19.043
21.484,25.391,-110.352,-14.648,-33.691
44.434,26.367,12.207,-9.766,22.949
50.293,24.902,-19.531,-8.301,73.242
29.297,24.414,-85.938,-15.137,82.52
15.137,22.949,-202.637,-17.09,67.871
27.344,22.949,-172.363,-6.348,27.344
45.41,23.438,73.242,-6.348,20.996
49.805,21.484,32.715,-2.93,52.246
42.969,18.066,-109.375,0,70.801
28.809,16.113,-213.867,-6.348,51.27
34.18,19.531,-133.789,-10.254,59.082
56.641,23.926,13.672,-4.883,70.801
60.547,27.344,-15.625,-2.93,39.551
46.875,25.391,-122.07,-2.93,5.371
30.762,23.926,-184.57,1.953,-21.484
27.344,27.344,-163.574,1.465,-1.465
40.039,25.391,10.742,-2.441,-7.812
56.641,24.902,39.551,-2.93,-11.23
60.547,28.32,-77.637,-0.977,20.02
45.41,31.738,-161.133,0.977,18.066
36.621,31.738,-162.598,0.977,-49.316
51.27,29.297,-6.348,0,-14.16
66.406,28.809,25.391,-0.977,48.828
52.734,25.391,-65.918,0,19.531
35.156,26.367,-170.898,0.977,-21.484
34.668,30.762,-159.18,-0.977,34.668
48.828,33.203,-23.926,2.93,63.477
62.012,32.715,54.199,5.371,50.293
52.734,30.273,-32.227,3.418,67.383
36.133,27.832,-152.344,0.977,60.547
32.715,26.855,-170.898,-1.953,63.965
43.457,27.344,-68.359,5.371,79.59
51.758,27.832,1.465,15.137,68.359
46.387,27.832,-34.668,12.207,40.039
31.25,25.391,-128.906,4.883,48.34
19.531,23.438,-235.352,3.418,38.086
31.738,26.855,-130.371,7.812,-1.953
55.176,26.367,12.695,4.883,-52.734
66.895,28.809,1.953,11.23,27.832
71.777,39.551,-82.52,20.02,60.547
49.805,41.504,-220.703,0,35.156
37.109,33.203,-129.883,-10.742,56.152
56.641,26.367,37.598,6.348,-47.363
74.219,21.973,-8.301,12.207,-32.715
62.5,19.043,-96.68,10.742,26.855
46.875,21.484,-208.984,16.602,30.273
59.082,29.297,-163.574,21.973,13.672
77.637,25.879,55.176,23.926,16.113
85.449,15.137,-5.859,27.832,32.227
58.594,17.09,-145.02,29.297,-38.086
43.457,22.949,-166.992,26.367,-18.066
52.734,20.508,-131.348,24.414,47.852
73.73,27.344,39.551,28.809,37.598
82.031,32.715,39.062,34.18,49.316
77.637,29.297,-88.867,39.551,33.203
71.777,35.156,-173.34,39.062,72.754
64.453,34.18,-144.531,33.691,101.562
74.707,30.273,-7.324,35.156,49.316
81.055,29.785,6.348,39.062,16.113
66.406,27.832,-69.336,39.551,22.949
51.758,31.25,-191.895,35.156,55.664
45.898,35.156,-181.152,32.715,2.441
55.176,36.621,3.906,33.691,-31.25
69.824,34.18,43.457,31.738,-17.09
67.383,30.762,-69.336,34.18,-23.926
46.387,32.227,-142.09,34.668,-14.16
37.598,34.668,-188.477,24.414,60.059
54.688,35.156,-42.48,23.926,35.645
68.359,35.156,65.43,27.344,-18.555
60.547,40.039,-36.621,24.902,5.371
47.852,41.504,-127.441,23.438,63.477
36.133,38.574,-149.414,18.555,85.449
43.457,35.156,-58.594,15.137,73.242
61.523,30.273,-18.066,19.043,39.062
58.105,26.367,-35.156,23.926,16.113
37.598,24.902,-85.449,19.043,31.738
24.414,28.32,-199.219,15.625,81.543
39.551,26.367,-112.793,18.066,12.207
55.664,22.461,95.703,19.531,-18.066
48.828,20.996,-3.418,17.09,44.434
40.039,21.484,-142.578,6.836,20.508
30.273,25.879,-181.641,6.348,-4.395
32.715,26.367,-83.984,8.301,-3.906
47.852,23.926,32.227,6.348,20.508
53.223,24.902,-32.227,9.277,54.688
45.898,28.32,-157.227,10.742,-10.742
36.621,33.203,-180.176,6.836,32.715
51.758,36.133,-87.402,16.602,55.176
64.941,30.762,24.414,21.484,-17.578
37.109,26.367,-37.109,-3.418,-13.672
13.672,27.832,-96.68,-15.137,-24.902
3.906,30.762,-203.125,-8.301,-44.922
4.883,27.344,-162.598,-11.23,-40.039
32.715,27.832,65.43,-9.277,-14.16
44.922,30.273,21.973,-1.953,26.855
34.668,28.809,-99.121,6.836,32.227
28.809,25.391,-186.523,6.836,38.574
28.32,27.832,-179.688,3.906,52.246
53.711,30.273,-28.32,14.16,18.066
63.965,24.414,35.156,15.137,27.344
51.27,26.367,-62.012,10.254,51.27
39.062,30.762,-177.734,11.23,28.32
33.691,29.785,-216.797,8.789,20.996
41.992,27.832,-43.457,1.465,-4.883
58.105,28.809,41.992,3.906,-27.344
53.711,28.32,-53.711,5.371,1.953
38.574,25.879,-176.27,0.977,-0.488
36.133,29.785,-151.367,0,48.828
43.945,33.691,-35.156,0.488,48.828
55.176,33.203,-32.227,4.883,-6.348
53.711,28.809,-45.898,9.277,53.711
33.691,26.367,-106.445,7.812,73.242
22.949,29.297,-179.199,-2.93,28.809
35.156,27.832,5.859,-4.395,41.016
53.711,26.367,158.203,1.953,28.32
53.223,31.738,45.898,1.953,19.531
33.691,35.645,-75.195,0,-24.902
25.391,35.156,-78.613,-3.418,-9.766
42.969,37.598,-14.16,0.977,37.109
61.035,39.062,78.613,5.859,4.395
61.035,36.621,61.523,6.348,-16.113
48.828,30.762,-99.609,3.906,-39.551
41.992,35.645,-122.07,0.977,-2.441
48.34,41.992,-1.465,3.418,25.391
66.406,44.434,90.82,8.789,45.41
67.871,46.875,16.602,13.672,30.273
45.898,40.039,-62.988,9.277,23.438
32.227,34.18,-189.941,5.371,32.715
42.969,38.574,-115.234,8.301,3.418
54.199,38.086,117.676,11.719,10.254
53.711,33.691,57.129,14.16,35.645
45.41,38.086,-58.594,15.137,66.406
27.344,37.598,-188.965,13.672,24.414
32.715,36.133,-129.883,14.648,-2.441
48.828,39.062,32.715,16.602,19.531
46.387,37.598,41.992,11.23,-14.16
35.645,32.227,-18.555,6.836,-18.066
16.113,34.18,-159.668,8.789,14.16
9.277,38.574,-165.527,4.395,53.711
29.785,34.18,58.594,6.836,65.918
45.898,32.227,79.59,15.137,39.551
47.363,34.668,-41.992,15.137,43.457
36.133,38.574,-148.926,14.648,66.895
30.762,39.551,-132.324,13.672,27.832
41.016,37.598,19.043,11.719,0
54.688,40.039,23.926,13.672,52.246
45.898,41.992,-18.066,8.789,62.988
30.762,45.41,-121.094,5.859,51.758
32.227,46.875,-115.234,2.441,35.156
39.062,43.457,57.617,-0.488,55.664
56.641,44.922,64.941,9.277,66.895
53.223,42.969,-21.973,15.625,88.379
29.785,39.062,-131.836,8.301,76.66
22.949,41.504,-236.328,5.859,-33.691
30.762,41.504,-36.133,4.883,-6.348
45.898,37.598,102.539,2.441,71.289
51.27,39.062,-34.668,6.348,64.941
32.227,41.504,-145.508,6.836,29.297
27.344,39.551,-220.703,0.488,25.879
35.156,36.133,-67.871,0,24.902
44.434,39.062,114.746,0.488,-4.395
41.504,41.016,5.371,-0.977,31.738
25.391,43.457,-136.719,-0.977,-0.488
20.02,44.434,-145.508,-3.906,-34.668
29.785,42.969,-38.086,4.883,0.488
44.434,41.992,46.875,9.766,41.504
44.434,43.945,0.488,6.836,83.984
35.156,45.898,-98.633,7.812,49.805
17.578,44.922,-183.105,2.93,35.645
13.672,42.969,-126.953,-4.883,5.371
31.738,43.457,29.785,-3.418,-3.906
39.062,40.527,22.949,-1.465,4.883
33.203,39.062,-46.875,-5.371,11.23
26.367,40.527,-198.73,-8.301,10.742
23.926,40.039,-169.922,-12.695,4.395
36.133,42.48,74.219,-5.859,-8.301
46.387,45.898,28.32,2.93,-11.719
39.062,47.852,-85.449,4.395,-8.789
28.809,46.387,-185.547,-1.465,-19.531
27.344,45.41,-143.066,-2.441,-9.277
38.086,46.387,16.113,5.371,20.508
49.316,40.527,-32.715,7.324,8.301
41.016,38.574,-73.242,9.277,-35.645
19.531,40.527,-134.277,6.836,-3.418
22.949,38.574,-132.812,3.906,40.527
41.016,39.551,12.207,6.836,42.969
48.828,45.41,25.391,10.742,8.301
37.598,43.945,-63.477,10.254,-22.461
15.137,40.527,-156.738,5.371,26.367
11.23,45.41,-164.062,0.488,70.801
33.203,45.41,-36.621,3.418,35.645
42.48,39.551,48.34,6.836,29.785
34.18,42.48,-37.109,9.766,42.969
25.879,50.293,-166.992,5.859,86.914
20.02,49.805,-220.215,-3.418,99.121
31.25,44.434,-68.848,-6.348,2.441
46.875,44.434,68.848,-1.953,-45.898
51.758,48.828,-25.879,2.441,-8.301
39.062,52.246,-148.926,4.395,18.555
36.621,53.223,-161.133,10.742,23.926
46.387,50.781,-39.551,10.742,35.156
60.547,45.898,16.113,10.742,8.301
65.918,42.969,-36.133,14.16,-17.09
50.781,46.387,-129.883,14.16,-20.02
43.945,44.434,-186.523,4.883,-18.555
45.898,36.133,-101.562,0.488,15.137
55.664,41.504,12.207,10.742,24.902
56.152,43.945,15.137,15.625,34.18
42.48,42.48,-88.379,14.648,38.086
26.367,39.062,-204.102,9.277,79.102
24.414,34.668,-121.582,3.418,102.051
48.828,35.645,7.812,11.23,35.156
58.594,34.18,-24.902,16.602,25.879
39.062,32.227,-95.215,10.254,39.062
32.227,35.156,-236.816,4.883,32.715
38.574,37.598,-153.809,1.953,30.273
51.27,36.133,65.43,-1.465,74.707
60.547,36.621,-49.805,2.441,54.199
51.758,41.504,-82.52,3.906,26.855
41.504,41.016,-176.27,0,32.715
39.062,38.574,-206.055,-1.465,-4.883
61.035,40.527,48.828,2.93,35.156
68.848,38.086,36.621,8.301,49.805
45.41,35.645,-98.633,8.789,-6.836
29.297,40.527,-187.988,1.953,21.973
27.344,45.898,-146.973,3.418,97.656
38.086,44.922,-13.184,11.719,73.73
52.246,42.48,7.812,16.602,36.133
43.457,41.016,-73.242,17.09,63.477
17.09,34.668,-213.867,10.742,46.875
15.137,31.738,-234.375,2.93,-6.348
27.832,35.156,-27.344,4.883,-11.719
32.227,33.691,60.059,9.277,9.766
34.668,34.18,-64.453,6.348,41.504
24.902,30.273,-210.449,4.395,43.945
16.602,32.227,-192.383,-0.488,-3.906
31.738,36.133,-35.156,-1.465,2.93
51.758,38.086,-12.207,7.812,21.973
50.781,28.32,-76.66,11.23,0.977
40.527,-0.977,-158.203,6.836,19.531
38.574,-14.648,-175.293,8.301,52.734
51.758,-16.113,-88.867,12.695,59.57
63.965,-15.625,-5.859,16.113,41.016
62.988,-12.695,-17.09,10.254,62.012
38.086,-12.207,-155.273,0.977,54.688
19.043,-13.184,-237.305,0.488,6.348
39.551,-6.348,-89.355,5.859,21.973
60.547,-1.465,19.531,8.789,53.711
65.918,2.441,-72.754,14.16,71.289
53.711,5.371,-166.016,12.207,29.785
30.762,5.859,-215.82,1.465,45.41
37.109,6.836,-127.93,0.488,23.926
63.477,8.301,4.395,9.766,-39.551
69.824,13.672,-52.734,17.09,8.301
48.828,12.207,-127.93,14.16,41.504
36.621,13.672,-214.355,5.371,57.617
41.504,20.508,-134.277,3.418,53.223
55.664,20.02,6.348,6.836,7.812
66.895,21.973,-27.832,9.766,-39.062
54.199,26.855,-100.098,10.254,-48.34
33.691,31.25,-223.145,9.277,8.301
36.621,28.32,-150.879,4.883,57.129
53.223,21.973,21.973,0.488,71.777
60.547,26.367,-14.16,2.441,21.973
59.57,33.203,-74.707,8.789,7.324
41.504,30.273,-196.777,6.836,50.293
31.738,23.926,-210.938,-2.93,84.473
52.246,26.855,-56.152,-5.859,92.773
71.289,31.25,85.449,1.953,24.414
64.941,31.25,-10.254,2.93,39.551
45.41,30.273,-212.891,0,34.18
41.016,30.762,-184.57,-0.488,5.371
47.363,24.902,-24.414,-5.371,17.578
56.152,23.438,15.625,-2.441,-1.465
53.223,28.809,-49.316,-4.395,22.949
34.668,30.762,-184.082,-14.648,1.953
24.902,33.203,-178.223,-12.695,27.344
47.363,35.645,-61.523,-4.395,61.035
55.176,29.785,5.859,-7.324,61.523
44.922,25.879,-39.062,-7.324,44.922
42.969,32.715,-129.883,-2.441,31.738
26.855,35.645,-249.023,-3.906,42.969
28.809,35.156,-106.934,-1.465,11.719
56.152,33.691,75.684,4.395,23.438
52.246,34.18,-36.621,0.977,26.855
28.32,38.574,-153.32,-1.465,14.648
14.648,37.109,-211.914,-0.488,18.555
32.227,37.598,-86.426,4.395,-12.695
53.223,38.086,3.906,7.324,-22.949
