TP9,AF7,AF8,TP10,Right AUX
22.461,43.457,-33.691,22.461,10.254
35.645,45.41,-8.789,29.785,16.602
49.316,47.363,29.785,47.852,35.645
33.691,46.387,11.719,49.316,50.293
18.066,44.434,-19.531,35.645,38.086
17.578,42.48,-27.832,33.691,-15.625
31.25,36.621,-22.949,33.691,1.465
42.969,36.621,4.395,32.227,27.344
30.273,39.062,17.09,34.668,15.625
20.02,36.621,-8.301,34.18,29.297
19.043,36.133,-18.555,29.785,72.266
28.809,34.18,-12.207,33.691,52.734
49.805,42.48,7.812,41.992,26.855
40.039,43.457,0,35.156,46.387
23.438,33.691,-19.043,26.855,48.34
17.578,32.227,-34.668,20.02,52.246
29.785,29.297,-38.086,20.02,-15.137
48.828,32.227,-4.883,35.156,17.09
41.504,32.715,7.324,41.992,43.457
31.25,30.273,2.93,36.621,28.32
26.855,37.109,10.254,29.297,103.027
39.551,38.574,-17.09,34.18,41.992
52.246,38.086,0.977,38.086,-2.93
43.945,38.574,43.945,41.992,60.547
38.574,33.691,16.113,40.527,-3.906
24.902,32.227,-14.16,25.879,-17.578
30.762,35.645,-32.227,23.438,-11.719
55.664,38.574,-4.395,32.715,20.508
49.316,38.574,8.789,40.039,18.066
28.809,35.156,-18.555,38.086,-4.395
18.555,38.574,-21.484,21.973,35.645
26.367,43.945,-16.602,13.184,104.004
44.922,41.016,-7.324,20.02,81.055
42.969,41.016,15.137,25.879,18.066
29.297,41.992,11.719,27.344,26.367
18.555,45.898,-6.348,20.508,118.652
25.391,45.898,-20.02,16.113,90.82
44.434,40.527,0,26.367,27.344
44.922,41.504,45.41,33.691,36.621
32.227,40.039,48.828,32.227,12.207
21.973,34.18,20.508,24.902,10.254
21.973,26.855,3.418,16.602,48.828
45.41,32.227,28.32,23.926,26.855
57.617,39.551,60.059,38.574,-8.301
29.297,30.762,38.574,24.902,-20.996
9.766,24.414,3.906,6.348,-33.203
14.16,24.902,4.883,7.812,4.883
32.715,27.344,17.09,13.672,-19.531
39.551,36.133,39.551,17.09,39.551
23.438,39.062,27.344,20.996,47.363
12.695,33.203,-5.371,18.555,-4.883
17.578,36.133,-14.16,15.137,62.988
32.715,34.668,-18.066,29.297,54.199
42.969,31.25,12.207,43.457,69.336
32.227,34.18,34.668,41.016,75.684
16.602,33.691,15.625,32.715,67.383
14.16,31.738,-12.207,24.902,34.668
27.344,30.273,-16.113,27.344,-25.391
39.062,37.109,12.207,37.109,-12.695
31.25,41.016,5.859,36.621,1.465
18.066,41.992,-25.391,29.297,15.137
13.184,41.504,-41.992,19.043,-3.906
26.855,38.086,-29.785,18.555,-43.457
41.992,44.922,-4.395,26.367,-37.598
31.25,50.293,-2.93,28.32,2.93
17.09,41.992,-18.066,24.902,20.996
9.766,36.133,-24.902,17.578,-30.273
15.137,36.133,-16.602,15.137,46.387
32.227,37.109,-23.438,19.531,76.66
26.855,43.457,-10.742,23.438,39.551
16.602,41.504,-5.859,20.508,76.172
11.719,34.18,-31.25,9.277,94.727
20.996,34.668,-37.598,13.672,32.227
42.969,39.062,-14.648,27.832,4.883
38.086,39.551,3.418,28.809,16.113
20.02,33.691,-10.742,21.484,14.16
9.766,33.691,-19.043,13.672,98.145
16.602,35.645,-22.949,15.625,116.699
32.715,31.738,-22.949,20.02,-13.672
28.32,37.598,11.23,22.461,-25.391
20.508,45.898,19.043,28.32,-14.648
13.184,42.969,11.23,21.484,-38.086
11.23,37.598,12.695,11.719,-32.715
31.738,39.551,16.113,21.484,-51.27
38.574,41.016,34.18,30.762,-24.414
20.996,36.621,24.902,26.367,41.016
4.883,29.785,0.488,15.137,52.734
2.93,26.855,-1.953,6.836,111.816
22.461,32.227,-0.977,13.184,67.383
32.227,35.645,5.371,16.113,-29.785
21.484,36.621,6.836,11.23,-26.367
9.277,37.598,-0.488,5.371,53.223
3.906,32.227,-9.277,-0.977,43.945
26.855,14.16,3.418,18.555,-63.965
64.941,20.996,30.273,53.711,-72.266
44.434,41.016,19.531,35.156,-24.902
-8.301,37.598,-9.766,-11.719,14.16
-10.742,36.133,-20.02,-29.297,24.902
14.648,42.969,-32.227,-26.367,39.551
15.137,51.27,-18.555,-31.25,65.918
-0.488,54.688,-3.418,-39.551,51.27
-11.719,53.711,-41.992,-48.34,14.648
-18.555,56.152,-38.086,-62.5,0.977
-13.672,51.758,-13.672,-61.523,98.633
-7.324,48.828,-6.836,-49.316,132.324
-10.254,50.293,8.789,-33.203,51.758
-16.602,49.316,2.441,-33.203,6.836
-17.09,53.223,-9.277,-37.598,30.273
0.977,53.711,-6.348,-27.344,66.895
17.09,54.688,15.625,-16.602,33.691
9.277,60.059,30.762,-13.672,81.543
-2.93,55.664,10.742,-18.066,109.375
-5.859,48.828,-12.207,-25.879,47.852
12.695,47.852,-12.207,-22.461,19.043
28.809,49.316,13.184,-9.766,-7.812
19.531,51.758,45.898,-4.883,33.203
8.789,54.199,30.762,-2.93,65.918
3.906,48.828,0.488,-6.348,22.461
16.602,45.41,-11.719,-12.207,37.109
32.227,46.387,-3.418,-5.859,-6.348
26.367,48.34,24.414,0.488,-46.875
19.043,55.664,40.527,3.418,8.301
12.695,53.711,38.086,-1.953,-11.719
14.648,48.828,32.715,-6.348,-10.254
32.227,49.805,52.246,6.348,-6.836
30.762,47.852,68.848,13.184,28.32
20.996,48.828,61.523,8.789,67.871
16.113,48.34,43.945,0,8.301
22.949,44.922,29.785,-3.418,4.883
41.992,46.387,24.902,7.812,27.344
41.016,54.199,52.734,18.555,49.316
30.762,57.129,63.965,20.996,31.25
23.438,49.316,41.016,8.789,22.949
22.461,43.457,21.484,-1.465,58.594
38.086,45.898,31.25,7.812,32.715
46.387,51.758,63.965,18.066,46.875
36.133,50.293,52.734,19.531,45.41
17.578,40.527,31.738,7.812,-7.324
15.137,36.621,36.133,-0.488,48.828
38.574,36.133,36.133,8.789,64.941
47.852,37.109,55.176,17.09,2.441
34.18,41.016,82.031,19.531,-20.02
24.414,39.062,66.406,16.602,-1.953
24.902,41.504,40.039,11.23,23.926
36.621,45.898,45.41,10.742,24.902
46.875,49.805,80.078,20.996,13.672
45.41,51.27,82.031,25.391,27.344
37.598,48.34,57.617,19.043,30.273
33.203,50.781,49.805,12.695,58.105
41.504,53.711,44.922,9.277,123.535
52.734,55.176,55.664,13.672,61.523
44.922,60.059,65.918,18.066,21.484
29.785,52.734,33.203,15.137,45.898
29.785,49.316,6.836,10.742,14.648
42.48,51.27,-7.324,9.766,3.418
58.105,46.875,7.812,19.531,-8.301
49.805,47.852,46.875,22.949,-3.906
32.227,44.434,33.203,17.578,-10.254
24.902,39.551,16.113,14.648,-30.762
31.738,35.645,25.391,21.484,33.691
49.805,31.25,41.504,26.367,61.035
47.363,27.832,49.805,29.297,17.09
30.762,29.785,40.527,28.32,-11.23
19.043,34.18,29.297,16.602,-30.762
25.879,35.156,36.133,10.254,-16.113
39.551,32.715,32.715,20.02,13.672
34.668,33.203,57.617,31.25,35.645
27.344,31.25,55.176,31.738,79.102
22.461,25.391,14.648,27.344,24.414
31.25,28.32,15.137,21.484,-15.625
45.41,34.18,36.133,25.879,52.246
41.504,35.645,42.48,33.203,85.449
36.133,27.344,27.344,34.668,52.246
27.832,22.461,-1.465,27.832,-23.438
18.066,28.32,-1.953,2.441,-5.859
33.203,36.621,13.672,0.488,53.223
42.48,41.016,33.691,17.09,7.324
30.273,39.062,50.781,24.414,2.93
22.949,40.039,36.133,19.531,39.551
24.902,38.086,19.531,13.672,49.805
40.527,32.227,23.926,24.414,42.969
45.898,34.668,42.48,36.133,24.414
39.062,41.016,44.922,40.527,40.039
28.32,37.598,29.785,36.621,-41.992
27.344,35.645,18.555,29.785,-48.34
44.434,34.668,8.301,32.715,29.785
53.711,34.668,26.855,40.527,-4.395
48.34,44.922,49.316,41.504,22.949
39.062,47.363,30.762,33.691,113.281
34.18,41.016,4.883,25.879,31.25
45.41,38.086,20.02,28.809,5.371
55.664,45.41,49.805,37.598,104.492
42.48,49.805,39.551,36.621,71.777
30.762,46.875,34.668,27.832,28.32
27.344,43.945,33.691,18.066,4.395
37.109,41.504,40.039,21.484,88.379
52.246,47.363,53.711,32.227,110.352
41.992,54.199,43.457,39.062,24.902
30.762,55.176,29.785,37.109,52.734
27.832,54.688,22.949,27.832,65.918
39.062,55.664,11.719,27.832,41.016
56.641,57.617,20.02,34.18,41.992
50.293,62.5,41.016,36.621,-23.438
39.551,64.453,35.645,34.668,-16.113
35.156,57.617,10.254,25.391,4.395
45.41,56.152,4.883,23.438,16.113
65.43,61.035,19.531,38.574,28.809
54.199,59.57,35.156,44.434,1.465
38.574,54.199,19.043,38.574,42.969
34.668,53.223,-16.602,33.691,20.996
40.039,52.734,-12.207,30.762,45.898
59.57,59.57,24.902,37.109,47.852
58.105,70.312,45.41,39.551,-14.648
41.992,73.73,39.551,33.203,-2.441
33.691,70.801,31.738,26.855,18.066
40.039,66.895,18.555,18.555,-19.531
57.129,67.871,28.809,28.32,-8.301
57.129,70.801,53.223,40.527,-6.348
41.016,68.848,43.457,35.645,-38.086
29.785,65.918,20.02,27.832,12.695
29.297,64.941,6.836,22.461,51.758
43.945,63.965,29.785,26.855,40.039
47.363,62.5,60.547,31.738,13.184
33.691,57.617,57.617,28.809,4.395
22.461,51.758,36.621,24.414,40.527
26.367,57.129,24.414,21.973,42.48
47.852,60.059,32.227,32.715,52.734
60.059,58.105,44.434,38.574,80.078
51.27,61.523,68.848,40.527,31.738
35.156,58.594,61.035,34.18,30.762
30.762,54.688,30.762,28.32,-12.207
46.387,57.617,43.945,38.086,-14.648
55.176,60.547,74.219,47.852,23.926
45.41,56.152,63.477,47.363,-10.254
30.762,54.199,50.293,34.668,68.359
21.484,57.617,35.645,22.949,104.492
34.668,55.176,11.719,30.762,74.707
51.27,56.641,24.902,42.969,-9.766
39.551,61.035,50.781,41.016,-21.973
22.949,54.688,34.18,33.691,42.48
17.578,53.711,18.066,30.273,10.742
30.762,57.129,25.391,30.762,0.977
41.504,57.617,49.316,36.133,26.367
36.621,59.57,51.758,40.527,40.527
30.762,60.059,23.438,37.109,-3.906
22.949,60.059,-0.977,28.809,22.461
33.203,57.617,-2.93,28.809,47.852
44.434,58.105,23.926,32.715,-41.504
25.879,57.129,44.922,27.344,-4.395
15.625,53.223,20.996,21.973,27.344
11.719,57.129,11.719,12.695,5.859
18.066,57.129,31.738,10.254,53.223
43.945,56.641,36.621,22.461,56.152
42.969,62.012,53.223,35.156,51.27
31.25,57.617,56.152,35.645,27.832
27.344,52.734,45.41,28.32,45.898
32.715,54.199,40.527,26.855,36.621
51.758,54.688,49.805,37.109,-1.953
53.223,53.223,77.637,44.434,49.805
40.039,48.828,78.125,41.504,20.996
29.785,49.805,61.035,34.668,18.066
35.156,50.293,52.246,28.809,69.824
50.293,42.969,43.945,33.203,43.945
43.457,42.48,49.316,35.156,41.992
30.273,47.363,35.645,34.18,25.879
27.344,44.434,3.906,27.832,-31.738
30.273,39.062,-6.348,24.414,-30.762
47.363,44.922,11.719,34.18,-9.766
51.27,49.805,39.551,42.48,43.945
36.133,43.945,21.484,40.039,97.168
24.414,43.457,-2.441,28.809,38.086
22.949,46.875,10.254,22.461,47.852
39.062,41.016,11.719,27.344,42.969
46.387,41.504,14.16,29.297,7.812
35.645,46.875,3.418,29.297,-34.668
25.879,46.387,-18.555,23.926,9.277
26.855,47.363,-14.648,17.578,111.816
49.805,45.41,-24.414,28.32,56.152
60.059,46.875,-15.625,37.109,9.277
48.34,54.199,13.672,36.133,44.922
38.574,53.223,-13.672,29.785,53.711
35.645,50.781,-39.551,18.555,28.809
48.34,53.223,-24.414,21.973,34.668
55.176,55.176,3.906,32.227,66.895
47.852,55.176,30.273,32.715,66.895
37.598,55.176,-1.465,29.785,33.691
28.809,56.152,-30.273,25.391,0
42.48,53.223,-13.672,26.855,26.367
61.523,51.27,20.02,38.086,45.41
52.734,52.734,36.621,41.504,52.734
38.086,53.223,15.625,31.25,73.73
27.344,50.293,5.371,22.949,101.074
37.598,43.457,-7.324,24.902,90.82
51.758,42.969,-5.859,37.109,21.973
36.621,48.828,16.602,43.945,15.137
23.926,56.641,16.602,44.922,34.668
19.531,57.129,2.93,38.086,33.691
30.762,53.223,7.324,32.715,22.949
46.387,48.828,3.418,41.016,2.441
38.574,48.828,7.812,43.457,7.324
28.32,54.688,25.391,40.039,47.852
26.855,56.152,0.977,34.668,15.137
34.18,55.176,-7.812,33.691,28.32
50.781,57.129,10.742,40.039,77.637
43.457,59.082,22.461,37.109,10.254
27.344,52.246,14.16,32.227,-20.996
16.602,48.34,16.602,25.391,40.527
17.578,47.363,21.973,22.949,-4.883
39.551,47.852,22.461,25.879,-5.859
42.969,51.758,40.039,31.738,39.062
30.273,49.805,55.176,30.273,39.551
17.09,43.945,32.715,19.043,45.41
20.02,42.969,13.184,17.578,0.977
40.527,47.363,33.203,29.785,22.949
41.504,51.27,54.199,40.039,39.062
29.297,48.34,46.875,37.598,39.062
23.926,44.922,22.461,28.809,28.32
23.926,44.434,6.836,27.832,6.348
39.062,41.992,7.324,35.645,4.395
52.734,44.434,23.926,41.504,13.184
42.48,50.781,51.27,41.016,40.527
25.879,44.434,24.902,36.621,35.645
24.414,37.109,-1.953,31.738,-17.09
41.016,38.574,18.066,32.715,-39.062
54.688,44.922,41.504,41.016,35.156
44.922,46.875,41.992,41.504,69.824
32.715,49.316,25.391,35.645,67.871
29.785,51.758,10.742,28.809,31.738
41.016,51.27,11.719,26.855,-7.324
56.641,45.898,28.32,36.621,-22.949
47.363,43.457,37.109,39.062,-48.828
27.832,46.875,37.598,28.809,-21.484
25.391,47.363,32.715,21.484,36.133
42.48,43.945,17.578,24.902,17.578
51.758,44.922,29.785,32.227,15.625
39.551,51.27,45.41,35.156,-12.207
29.785,49.316,26.855,34.668,-18.066
26.855,51.27,10.742,24.414,22.461
40.039,57.129,11.719,19.043,58.105
50.781,51.758,5.859,24.902,24.902
41.992,54.688,17.578,27.832,34.18
34.668,58.594,7.324,22.949,67.383
28.809,57.129,-15.625,11.719,23.438
35.156,64.453,4.395,14.648,9.277
50.781,62.5,6.348,25.391,14.648
54.199,60.059,22.461,26.855,3.418
40.039,59.57,40.039,25.879,27.832
30.762,57.129,13.184,19.043,43.945
39.062,58.105,-2.93,13.672,7.812
51.758,59.082,17.09,21.484,23.438
55.664,59.082,21.973,28.32,18.066
48.828,55.664,16.113,28.32,-60.547
36.621,56.641,17.09,19.531,7.812
41.504,59.082,-7.812,14.16,70.312
61.523,55.664,-17.09,20.508,34.668
56.152,59.082,16.113,30.762,49.316
43.945,63.477,31.25,37.109,41.016
36.133,56.152,2.441,21.484,-4.395
31.25,52.246,-5.371,4.883,-33.691
49.316,57.129,12.695,13.184,-2.441
53.711,59.082,33.691,27.832,3.906
37.598,54.688,20.996,26.855,-41.504
29.785,51.27,-4.395,18.555,1.465
35.645,55.664,-10.742,13.672,114.258
48.828,51.27,-16.602,20.02,101.562
49.316,43.457,-6.348,32.715,79.59
41.504,44.922,-1.465,34.668,64.941
29.297,42.969,-13.184,24.414,11.23
22.949,41.992,-1.953,16.113,15.137
40.039,40.527,1.953,17.578,54.199
45.898,40.039,1.953,26.367,38.574
32.227,44.434,19.531,31.738,-6.348
19.531,33.691,8.301,32.715,2.441
15.625,31.738,-10.254,27.832,20.996
55.176,45.898,-19.531,39.551,-15.137
72.754,46.387,3.906,53.223,-12.207
37.598,40.527,20.996,40.039,-26.855
19.531,33.203,-1.953,33.691,-34.668
9.766,27.832,-16.602,36.621,17.09
21.484,26.855,-14.16,36.621,16.602
38.086,26.855,17.578,43.457,53.711
32.227,27.832,39.062,55.664,46.387
22.949,21.973,30.762,53.711,-9.277
20.02,15.625,27.344,46.387,24.414
35.156,17.578,30.273,49.316,100.586
47.852,19.531,13.184,44.922,76.172
38.574,25.391,24.902,43.945,21.484
32.227,28.32,28.809,48.34,-14.16
29.297,24.902,4.883,31.738,31.738
38.574,26.367,-1.465,31.25,74.707
54.688,31.738,25.879,48.34,0.977
50.293,34.18,52.246,50.781,-21.484
41.016,34.18,37.109,49.316,12.695
34.668,33.691,11.23,36.621,11.23
34.18,30.762,5.371,29.297,-9.277
48.34,25.391,29.785,41.016,-9.277
50.293,27.832,50.781,49.316,56.641
42.48,30.762,45.41,48.828,70.312
35.156,34.18,20.996,41.992,72.754
38.574,41.504,18.066,39.551,68.848
52.246,46.387,16.602,47.363,12.207
52.246,45.41,6.348,54.199,19.043
41.992,46.875,31.738,51.758,30.762
34.18,46.387,34.18,42.48,36.133
36.621,46.875,23.926,37.598,62.5
52.734,48.34,38.574,45.898,41.504
56.152,43.945,58.105,55.176,67.383
44.434,41.504,49.805,55.664,20.02
38.086,37.598,25.391,45.41,-24.902
29.297,33.691,25.391,35.645,32.227
43.945,33.691,40.039,41.016,37.109
56.641,39.062,54.199,48.34,2.93
45.41,44.922,59.57,49.805,20.02
35.645,42.48,17.578,46.875,50.293
28.809,40.527,4.395,34.18,49.316
42.969,37.598,26.855,34.668,60.547
58.594,34.18,36.133,43.457,14.16
47.852,40.039,62.988,41.992,21.484
33.203,38.086,56.641,32.715,-11.719
23.438,32.715,41.504,21.484,-63.477
40.039,34.18,39.062,26.367,-51.27
54.688,38.086,55.664,38.086,-20.02
41.016,39.062,62.5,34.18,83.008
32.227,39.551,33.203,28.32,120.605
26.367,42.48,6.836,18.066,65.43
35.156,42.48,2.93,18.555,4.395
52.734,45.41,39.062,28.32,-2.441
47.852,48.828,62.5,25.391,55.664
33.203,44.922,43.457,23.438,125.488
22.461,38.086,10.742,20.508,64.941
30.762,37.109,7.324,15.137,25.391
52.734,37.598,18.555,23.438,33.203
50.781,40.527,30.273,28.809,6.348
34.18,41.016,26.367,25.391,-11.719
21.973,38.574,3.906,18.066,26.367
30.273,41.016,12.695,14.16,83.008
48.34,37.109,22.461,28.32,100.098
44.922,33.203,20.508,30.762,76.172
35.156,35.156,27.344,23.926,26.367
23.926,40.527,9.766,17.578,13.184
25.391,42.969,13.184,16.602,-5.859
44.922,36.133,17.578,25.391,38.086
46.875,34.668,18.555,26.855,77.148
29.785,40.039,24.414,28.809,63.965
24.414,40.039,-4.883,20.508,68.359
25.391,41.016,-16.113,8.789,30.762
35.645,43.945,-0.488,15.625,-4.395
42.969,44.922,35.156,30.273,35.156
34.668,43.457,32.227,30.273,-5.859
20.508,39.551,-5.371,23.926,8.301
18.066,41.016,-4.395,18.555,-2.441
37.109,42.969,4.883,21.973,-3.906
40.527,38.574,10.254,28.32,4.395
27.832,39.062,25.391,26.367,-20.508
21.973,45.898,18.066,24.414,24.414
16.602,49.805,16.113,15.137,31.25
31.25,47.852,18.066,19.043,24.902
49.316,48.34,27.832,32.715,33.691
41.992,52.734,32.227,30.273,13.184
24.414,52.734,3.906,29.785,19.531
23.438,50.293,-17.09,22.461,72.754
39.062,47.363,-1.953,20.02,80.566
43.945,46.875,7.812,30.273,77.148
35.645,54.199,17.09,28.32,75.684
33.203,59.57,25.879,25.879,82.52
31.25,49.805,-8.789,14.16,44.922
33.691,43.945,-21.484,9.277,41.504
42.969,46.387,-4.883,17.578,71.289
40.527,49.316,-0.488,21.973,35.156
28.32,48.34,-14.16,19.531,-1.465
19.043,42.969,-11.23,9.766,60.547
38.086,43.457,3.418,12.207,86.914
53.711,46.387,25.391,24.414,39.062
36.621,45.898,31.25,19.043,34.18
28.32,44.434,20.02,13.672,27.344
17.578,42.48,0,5.371,4.395
24.414,41.504,11.23,0.488,-9.277
45.41,38.574,22.461,5.371,9.277
40.527,32.715,29.785,10.254,31.25
33.691,24.902,51.27,23.926,27.832
48.828,23.926,28.809,39.062,64.941
51.27,36.133,12.207,25.879,87.402
32.227,41.016,29.785,-10.254,46.875
32.227,42.48,28.809,-4.883,12.695
25.391,48.828,7.812,10.254,38.086
4.395,44.922,-15.625,-9.766,44.434
4.883,43.457,-15.137,-21.973,76.66
10.742,52.734,-20.508,-29.297,69.824
17.09,51.758,-5.859,-15.137,10.254
11.23,57.129,29.297,-13.184,66.895
-12.695,61.523,0,-36.621,92.285
-6.836,55.176,-11.23,-27.344,51.27
13.184,55.664,2.441,-26.855,57.617
21.484,58.594,14.16,-25.391,39.062
14.16,56.152,22.949,-13.672,43.945
0.488,53.223,2.93,-15.625,38.086
7.324,51.758,-8.789,-21.484,15.137
28.809,51.758,-15.137,-9.277,46.387
37.598,56.152,-9.766,2.93,53.223
31.738,60.059,21.973,0.977,82.52
24.414,55.664,7.324,-6.348,73.242
20.508,49.316,-16.113,-6.348,-3.418
33.203,46.875,-10.254,1.953,-16.113
45.41,50.781,9.766,6.348,3.418
41.992,55.176,21.973,7.324,34.668
32.227,51.27,-0.977,4.395,82.031
17.578,46.875,-17.578,-8.301,58.594
29.297,49.805,4.883,-2.93,24.902
48.34,54.199,28.32,11.23,19.043
44.434,55.176,29.785,8.301,41.992
32.227,51.27,20.996,0,9.277
22.949,52.734,16.602,-6.348,6.836
31.25,53.711,29.297,3.418,0.488
45.41,51.758,45.41,15.137,-10.254
41.016,54.199,49.805,19.531,26.367
33.203,54.688,38.086,18.066,10.742
28.32,53.223,9.766,13.672,24.902
37.598,53.223,-0.977,13.184,-4.395
56.152,53.711,19.043,16.113,-23.438
46.387,53.223,33.691,20.996,29.785
28.809,48.34,17.09,24.414,34.668
20.996,41.992,-22.949,21.973,26.855
29.785,41.504,-21.973,21.484,65.43
48.34,43.457,-12.207,31.25,82.52
49.316,46.875,-16.602,32.227,59.082
38.574,52.734,4.883,22.949,31.738
29.297,53.711,-1.465,20.02,54.688
42.969,51.27,-8.301,26.855,14.648
65.43,54.199,18.555,33.691,20.508
54.688,56.152,27.832,36.621,48.828
37.598,50.781,9.766,36.621,-38.086
33.203,46.875,-3.418,25.391,-38.574
38.086,48.34,0.977,20.508,-20.508
58.105,45.898,-1.953,27.832,-1.465
65.918,47.852,14.648,35.156,69.336
50.781,51.27,31.25,36.621,60.547
33.691,44.922,8.789,25.879,-27.344
31.25,40.527,19.043,13.184,51.758
45.898,43.457,29.297,23.926,121.582
48.34,43.945,30.273,43.945,7.324
36.621,45.41,51.27,47.852,4.395
26.855,47.363,39.062,43.457,81.055
30.762,47.363,26.367,34.668,34.18
49.316,48.34,47.852,33.691,-38.574
59.57,56.152,69.824,47.363,-8.789
50.293,56.152,63.477,49.316,2.441
40.527,52.734,48.828,40.527,10.742
31.738,54.199,56.152,29.785,36.133
43.457,53.711,62.5,26.855,-9.277
52.246,50.781,83.008,34.18,18.066
37.598,49.805,93.262,37.598,14.648
32.715,53.223,73.73,37.598,30.273
31.25,59.082,68.848,30.273,123.047
41.992,54.688,77.637,27.344,30.273
53.223,48.828,93.75,39.551,-27.832
44.434,53.711,111.328,42.969,52.734
39.551,56.641,94.238,36.133,35.645
32.227,52.734,61.523,25.391,20.02
41.992,54.199,79.59,23.926,47.363
57.617,53.711,78.125,26.367,33.203
41.504,51.758,72.266,26.367,-20.508
27.832,57.617,79.59,26.855,13.672
27.344,54.688,45.41,24.414,17.09
37.109,52.246,42.48,23.438,-13.672
57.617,55.664,55.176,32.227,28.809
51.758,51.758,52.246,35.645,3.906
33.203,47.363,38.574,30.273,-1.465
30.273,46.875,2.441,22.949,-2.93
36.133,44.922,12.207,17.09,-4.883
47.852,35.645,33.203,23.438,3.418
49.316,36.621,40.039,31.738,21.484
31.25,39.062,46.875,28.32,10.742
15.137,30.762,30.762,18.555,15.137
25.879,36.133,34.668,21.973,54.688
43.457,38.574,35.645,32.715,31.25
41.504,36.133,39.551,38.086,20.508
31.25,37.598,38.574,38.086,34.18
11.23,35.645,11.719,32.715,-9.277
9.766,35.645,6.836,28.809,9.277
36.621,36.621,24.902,30.273,83.496
37.598,35.156,31.738,41.992,74.707
21.973,33.203,20.508,46.875,30.762
16.602,30.273,0,30.273,-8.789
17.578,33.203,-0.977,22.949,-7.812
37.598,34.668,9.277,27.832,3.906
46.387,31.25,7.812,32.715,-38.086
25.879,32.227,35.645,29.785,-9.277
13.672,31.738,43.945,21.484,76.66
18.555,25.879,18.555,18.066,23.438
28.809,23.438,17.578,20.996,-11.23
33.691,25.879,27.832,32.227,-20.02
24.902,27.832,35.645,30.762,28.32
11.23,24.902,20.996,18.066,59.57
9.766,22.949,-2.441,9.766,20.02
27.344,30.273,9.277,15.625,0
42.969,34.668,15.625,22.949,-2.93
31.738,35.156,20.02,24.414,21.973
22.461,36.133,16.602,23.438,80.078
23.926,39.062,-0.488,17.09,66.895
31.25,39.062,13.672,20.02,38.574
40.039,37.598,25.391,30.762,20.508
28.809,37.109,23.926,35.645,-1.465
18.555,29.785,10.254,32.227,60.059
11.719,23.926,-21.484,21.484,46.875
24.414,30.273,-14.16,20.996,4.883
43.457,38.086,7.812,29.785,32.715
38.086,43.945,15.137,29.785,28.809
31.25,47.363,15.137,30.762,6.348
21.484,44.922,-10.254,25.391,28.32
24.414,43.945,-6.348,27.832,31.25
42.48,43.457,-2.441,33.203,39.551
36.133,41.504,-12.207,32.227,65.918
23.926,45.41,-3.418,36.621,59.57
17.09,45.41,-10.742,30.273,55.664
25.391,43.945,-5.371,21.484,18.066
44.434,47.363,12.207,26.855,22.949
40.527,48.34,17.578,34.668,38.086
32.227,46.875,11.719,33.203,46.387
21.484,47.363,8.301,21.484,45.898
20.996,48.34,21.973,15.137,-14.16
40.527,44.434,20.02,23.926,-3.418
39.062,39.551,7.812,32.715,-15.625
24.902,43.457,28.32,29.297,18.555
10.254,39.062,9.766,19.043,82.031
17.09,36.133,-3.906,14.648,54.688
44.922,43.945,6.836,24.902,7.812
42.48,48.34,23.438,34.668,-3.906
24.414,47.852,38.086,35.156,48.828
21.484,42.48,9.277,28.809,46.387
18.555,37.598,-3.418,20.508,47.852
33.691,38.086,10.254,22.949,24.902
40.527,38.086,6.836,27.344,10.254
26.367,38.574,16.113,22.461,44.922
20.02,37.598,7.324,19.531,68.359
21.973,37.598,-14.648,19.531,46.875
38.086,38.574,-3.418,22.461,16.113
56.641,39.062,12.207,37.109,16.113
44.434,39.551,25.879,42.48,-22.949
25.879,39.062,19.531,32.715,-16.602
25.391,37.598,-0.488,20.508,-6.348
40.527,43.945,23.438,25.391,-57.129
53.223,49.805,57.129,38.574,-49.316
38.574,44.434,56.152,32.715,-41.016
24.414,40.039,38.086,18.066,-36.621
22.461,36.621,12.695,10.254,3.906
33.691,33.203,26.367,17.578,6.836
49.316,38.574,44.434,31.25,55.664
42.969,42.969,47.852,35.645,85.938
34.18,44.922,48.34,30.762,49.805
26.855,47.852,29.785,22.461,57.129
38.574,48.34,29.785,23.926,40.527
56.641,48.828,51.758,38.574,38.086
44.434,50.293,67.871,42.48,61.523
30.762,47.363,52.246,33.691,63.477
26.367,45.41,18.066,22.461,41.504
27.832,50.293,32.715,16.113,44.434
41.992,49.316,43.457,18.066,70.312
39.062,46.875,42.48,21.973,63.965
26.367,48.34,56.152,23.438,48.828
24.902,46.387,25.879,20.02,18.555
31.738,44.922,14.16,20.508,28.32
48.34,44.434,28.809,29.785,78.613
48.828,46.387,29.297,31.25,98.145
37.598,51.758,22.949,29.297,54.199
27.344,51.758,7.324,23.926,2.441
25.391,46.875,7.324,19.043,-17.09
41.016,45.41,30.273,29.297,14.648
43.945,46.875,39.551,38.574,20.996
34.18,47.852,37.598,35.156,16.602
23.926,41.504,11.23,26.367,20.02
25.391,40.527,3.418,20.02,-22.949
46.387,43.945,18.555,29.785,11.719
43.945,45.41,24.902,37.598,35.156
25.391,47.852,48.34,33.691,86.914
20.02,45.41,39.062,32.227,110.84
26.367,45.41,24.902,32.227,33.691
45.898,48.34,35.645,38.086,-12.207
52.246,46.387,38.574,42.48,-28.32
41.992,46.387,33.691,38.086,8.789
32.715,47.363,8.789,28.32,43.945
32.715,42.969,-11.719,19.531,26.367
42.48,38.086,4.883,22.949,31.738
44.922,38.574,4.395,27.344,70.801
33.691,40.039,-6.348,25.879,-1.465
25.879,41.016,4.395,23.926,-19.043
23.438,38.574,-6.348,12.207,66.895
37.598,37.109,-8.789,11.23,22.461
54.688,39.551,15.137,19.531,36.621
42.48,34.668,13.672,19.531,41.992
25.391,29.785,-7.812,14.648,9.766
15.137,29.297,-14.648,1.953,64.941
27.344,26.855,-2.441,0.977,32.227
52.734,30.762,3.906,17.578,-9.277
53.223,35.645,7.812,28.32,53.223
27.344,35.645,10.254,21.484,89.355
-1.465,35.645,-8.789,-3.418,61.523
14.648,37.109,-8.789,0,-15.137
46.875,37.109,4.883,23.926,42.969
41.504,34.18,8.301,28.32,89.355
30.273,31.25,0.977,19.531,-34.668
28.32,31.25,-13.672,15.137,-47.363
33.691,30.762,-3.906,22.461,48.34
48.828,32.715,19.531,26.367,51.758
49.316,34.668,38.574,32.715,-28.32
38.086,33.691,40.527,30.762,-18.066
25.879,33.203,11.23,20.02,-15.625
29.297,36.621,13.184,22.949,-25.879
45.898,35.156,24.414,31.25,6.348
48.34,34.668,29.297,36.133,6.836
38.574,38.574,32.715,39.062,70.312
28.809,34.18,0,34.668,-17.09
33.203,34.18,1.953,30.273,-44.922
53.711,35.645,23.438,34.18,76.66
59.57,30.762,0.977,41.016,46.387
46.875,37.109,0.488,33.691,-15.137
29.785,46.875,27.344,23.438,5.371
22.949,44.922,17.578,21.973,18.555
38.574,37.598,18.555,29.297,16.113
45.898,40.527,29.297,38.574,52.246
39.062,45.898,24.902,40.527,50.293
37.109,45.898,14.648,35.645,-2.93
44.434,47.852,26.855,31.25,-7.812
58.105,45.898,41.016,44.434,-12.207
56.152,46.387,41.992,57.617,-35.645
41.504,47.852,38.574,51.27,31.738
30.762,42.969,6.348,46.875,33.691
26.367,37.598,-7.324,37.109,-15.137
41.504,41.504,26.367,35.156,2.93
58.105,49.316,54.688,54.688,42.48
51.27,46.387,42.48,64.941,96.191
31.738,41.504,11.719,43.457,90.332
14.16,39.551,-4.395,15.625,38.574
28.32,41.016,16.113,23.438,-3.418
51.758,41.992,23.926,42.969,30.273
44.434,42.969,26.367,41.992,43.945
28.32,43.945,29.785,33.691,3.906
26.367,41.016,-1.465,19.531,40.527
37.109,41.016,6.348,18.066,26.367
51.27,38.574,17.578,26.367,16.113
42.969,33.203,9.766,26.367,7.812
29.297,39.062,14.648,21.973,-11.719
25.879,42.969,-10.742,14.16,67.383
31.738,41.992,-11.719,17.09,87.891
51.27,39.551,3.418,31.25,-3.418
51.27,37.598,2.441,40.039,-53.711
34.18,41.992,6.348,35.156,-41.504
26.367,42.48,-2.441,22.949,1.465
31.738,44.922,3.906,20.508,15.625
46.875,46.387,14.16,31.738,18.555
44.434,43.457,5.859,40.527,8.301
31.738,38.086,10.742,34.668,16.602
28.809,33.203,-2.93,26.855,30.273
34.18,40.527,-13.184,19.531,62.5
45.898,42.48,-14.648,25.391,56.152
45.41,36.621,-13.672,34.18,-0.488
34.668,37.598,-10.254,22.949,6.836
28.809,39.551,-27.344,15.137,40.039
34.18,43.457,-9.277,14.648,42.48
47.363,45.41,12.695,23.438,45.41
47.852,41.016,27.832,34.18,94.727
39.551,39.062,27.832,33.203,57.129
24.414,38.574,-4.395,27.832,13.184
26.855,42.969,3.418,26.855,44.434
45.898,44.922,35.645,32.715,50.781
42.48,40.527,28.809,34.668,46.387
28.32,41.992,26.367,31.738,18.555
20.996,46.387,39.551,27.832,19.043
25.391,47.852,22.949,26.367,70.801
55.176,48.828,19.531,41.016,68.848
72.266,47.363,33.203,56.641,33.691
45.898,43.945,32.227,40.527,30.762
21.973,36.621,10.742,23.926,9.766
17.09,38.574,0,17.578,-22.949
38.086,43.457,11.719,22.949,-54.199
55.664,47.363,48.828,33.203,3.906
41.504,47.852,51.27,31.738,46.875
27.344,41.504,20.996,29.297,16.113
22.949,34.668,3.906,22.461,37.109
36.621,32.715,10.254,18.555,-5.859
52.734,33.203,18.066,23.438,-4.395
41.992,35.645,29.785,20.996,6.836
25.391,37.109,43.945,14.16,8.789
12.695,36.621,11.23,6.348,46.387
17.578,39.551,9.277,7.812,47.852
31.25,38.574,29.297,23.438,64.453
27.344,37.109,17.578,30.273,37.109
20.02,38.086,11.23,26.367,-23.926
19.043,39.551,19.531,22.461,2.441
35.156,42.969,34.18,23.438,32.715
55.176,44.434,24.902,35.156,-0.488
52.734,43.457,7.812,41.992,36.133
37.598,45.898,20.508,39.551,64.453
28.32,46.387,7.812,27.832,78.613
39.062,47.852,0.977,28.32,59.082
56.152,50.293,24.902,41.504,46.387
51.27,45.898,38.086,41.992,41.504
35.645,41.992,32.715,38.574,8.301
24.414,43.945,10.254,32.227,40.039
31.738,49.316,6.348,28.32,92.773
52.246,53.223,16.602,39.062,62.988
51.27,52.246,16.113,48.828,53.223
36.621,52.734,24.414,41.992,55.176
26.855,50.781,23.438,35.645,29.785
37.109,49.316,22.461,36.621,1.465
53.711,53.711,40.039,41.016,17.09
49.316,55.664,46.875,49.805,40.527
39.551,57.129,41.992,45.41,20.996
26.367,57.617,22.461,34.668,44.922
23.926,51.758,5.371,29.785,56.152
42.969,47.852,19.531,35.645,23.926
46.875,47.363,25.879,41.016,24.902
33.203,47.852,31.25,34.18,28.32
12.207,45.41,30.273,20.996,50.293
6.348,41.504,6.348,11.23,49.805
23.926,43.457,15.625,20.02,40.527
30.762,44.434,27.344,28.32,11.23
18.555,50.781,19.043,26.367,43.945
11.23,50.781,-8.789,26.367,44.434
13.672,47.852,-24.902,22.949,-21.484
29.297,52.734,0,29.297,-39.062
41.016,55.176,21.973,41.016,-45.898
29.785,55.664,25.391,41.992,37.598
17.09,52.246,12.695,37.109,79.102
11.719,49.316,-3.906,24.414,76.66
31.25,54.688,6.836,20.508,43.457
49.805,49.316,8.789,33.203,31.25
38.574,43.457,3.906,34.668,70.801
26.367,48.828,11.719,26.367,56.641
16.113,48.828,-6.836,17.09,43.945
23.926,45.898,-0.488,20.996,-10.254
45.41,39.062,16.602,41.016,-9.277
46.387,38.086,20.996,51.758,15.137
38.086,45.41,13.184,43.945,39.551
20.996,46.387,-20.02,16.602,24.414
18.555,46.875,-4.883,4.395,9.766
36.133,49.316,16.602,15.625,55.176
36.621,44.922,0.977,22.461,43.457
20.508,42.969,12.207,19.531,6.348
8.301,40.039,-11.23,9.766,-20.996
20.508,37.109,-23.926,8.301,-38.086
44.922,37.598,-8.789,21.484,-21.973
47.852,41.016,-1.465,33.691,-62.5
34.668,42.969,0.488,30.762,-41.016
24.414,41.504,-18.555,23.438,-17.578
28.809,43.457,-14.648,20.02,-54.688
50.293,42.48,6.348,28.32,-22.949
52.734,45.41,24.414,37.109,59.082
34.668,47.363,29.785,33.203,71.777
20.02,46.387,20.02,23.438,58.594
19.043,43.945,20.02,17.578,66.895
42.48,42.48,29.297,25.879,46.875
49.805,41.504,22.949,31.25,31.738
38.574,43.457,24.902,26.367,22.949
29.297,47.852,11.23,23.438,26.855
25.391,45.41,0.488,13.184,22.949
40.039,41.504,24.902,16.602,4.395
45.898,44.434,32.715,28.809,43.457
28.809,49.805,19.043,27.344,82.52
13.184,46.387,3.906,20.508,27.344
15.137,47.363,14.16,11.23,-5.859
32.227,52.246,39.062,16.113,44.434
41.504,49.805,33.691,23.926,59.082
29.297,45.898,29.785,23.438,8.789
12.207,41.504,31.25,20.02,20.996
10.742,41.016,15.137,14.648,32.715
26.855,42.969,28.809,21.484,52.734
41.504,40.039,35.156,35.645,57.129
32.715,41.992,30.273,35.645,21.484
20.02,43.945,15.625,26.367,27.832
20.508,43.457,-12.695,19.043,57.617
34.18,50.293,15.625,23.438,69.824
50.781,54.199,32.227,31.738,2.93
45.898,53.223,10.742,27.344,-32.715
29.785,55.664,24.414,22.949,-14.16
20.02,58.594,21.484,18.555,34.18
30.762,55.664,20.996,20.996,31.738
43.457,56.152,48.34,32.227,24.902
36.621,55.176,50.781,30.273,28.32
29.785,54.199,46.387,26.855,45.898
20.02,48.828,31.738,19.531,122.559
25.879,38.574,22.461,14.16,74.219
46.387,40.039,28.32,25.879,35.156
42.969,44.922,28.809,31.738,44.922
31.25,45.41,38.574,29.785,44.434
25.879,43.945,26.367,26.855,46.387
32.715,41.016,19.531,19.043,58.594
51.27,38.574,37.109,27.832,78.613
50.781,41.016,44.922,40.039,34.668
38.086,45.898,48.828,31.738,28.32
24.902,43.457,39.062,20.508,42.969
21.973,41.504,33.691,14.16,5.859
38.086,46.875,55.664,22.949,-15.137
40.039,42.48,68.848,33.691,46.387
31.25,36.621,44.922,33.691,47.363
24.902,37.598,28.809,28.32,35.645
29.297,41.016,36.621,24.414,100.586
45.41,41.504,48.828,33.691,59.082
47.363,41.016,34.668,36.621,-4.395
34.668,43.945,35.156,31.25,28.32
22.461,48.828,39.551,22.461,79.102
20.996,48.828,13.184,17.09,53.711
39.062,52.734,33.691,23.926,14.648
44.922,52.246,51.758,34.668,-13.184
27.832,47.363,41.016,31.25,-29.297
17.578,49.316,25.391,23.438,9.277
17.578,44.434,-6.348,21.484,-9.277
28.809,41.016,4.395,26.855,6.348
35.645,44.922,24.902,34.668,53.711
25.391,45.898,26.367,31.25,28.32
16.602,49.316,20.508,19.043,79.59
17.578,51.27,4.395,7.324,101.562
28.32,46.387,25.879,3.418,48.34
41.992,43.457,30.762,17.09,61.035
41.504,45.41,23.926,31.25,56.641
30.273,46.875,23.438,20.996,10.254
17.09,46.387,-1.953,-0.488,40.527
24.414,48.34,17.578,1.953,40.527
40.039,44.922,20.996,20.02,-10.254
34.668,46.387,12.207,21.973,3.906
26.367,52.246,20.508,19.043,32.715
20.508,48.828,-0.977,17.09,22.949
31.738,48.34,14.16,17.09,28.32
51.758,49.805,18.066,27.832,19.043
42.969,50.781,5.371,32.715,65.43
25.391,52.246,3.906,23.438,76.172
17.09,52.246,-13.184,15.137,10.254
22.949,52.246,9.766,15.625,50.293
37.598,48.828,43.945,23.926,82.031
38.574,49.316,42.969,33.203,15.137
26.367,51.27,36.621,33.203,-13.672
17.578,46.875,28.809,24.414,17.578
21.973,44.434,34.18,25.391,-44.922
39.062,48.34,63.965,34.668,-55.664
42.48,47.363,57.129,38.086,34.668
29.785,46.875,53.711,33.203,23.438
14.648,50.293,49.316,20.02,-20.02
20.508,53.223,30.273,14.16,12.207
46.387,52.246,35.156,24.414,32.227
47.852,49.805,34.668,29.785,68.848
29.297,48.34,31.25,30.762,41.992
22.461,41.992,13.672,26.367,-9.766
27.344,35.156,-1.465,18.555,-10.254
38.574,37.598,33.691,25.391,-15.137
42.969,40.527,42.969,31.738,6.348
33.691,43.945,37.109,23.438,43.945
24.414,50.781,50.781,15.625,66.895
21.973,50.293,33.203,14.16,9.766
30.273,46.387,40.527,20.02,0.977
39.551,47.363,40.527,31.25,54.199
31.738,48.34,24.414,35.645,19.531
16.602,44.922,9.766,31.25,34.668
15.137,40.527,-12.207,25.879,39.551
36.621,43.945,-3.906,29.785,-40.527
47.363,48.34,9.766,41.016,16.113
36.621,50.293,14.16,45.898,89.844
26.855,51.27,0.977,41.504,-17.09
24.414,52.246,-17.09,31.738,-45.41
38.086,56.152,9.277,35.156,4.883
55.664,56.152,19.531,45.898,57.129
45.898,52.246,12.207,48.34,81.543
29.297,49.805,16.113,44.434,19.043
26.855,50.293,11.23,35.156,51.27
32.715,48.828,28.32,31.738,73.242
40.527,46.387,41.504,43.457,52.734
39.062,47.363,40.039,51.758,102.051
33.203,44.922,33.203,49.316,43.945
25.391,43.945,21.484,45.41,-17.578
36.621,45.898,45.898,43.945,6.348
56.641,47.852,60.059,55.664,36.621
43.457,49.805,44.434,62.988,5.371
20.508,50.293,41.016,56.152,13.184
13.672,48.34,23.926,52.246,10.254
21.484,42.969,18.555,48.828,-7.324
44.922,40.039,25.391,56.152,-6.836
44.922,41.016,20.508,61.035,-10.254
27.344,45.41,33.691,55.664,72.754
18.066,42.969,26.367,49.805,115.234
21.484,41.504,8.301,47.852,81.055
40.527,48.828,35.645,61.523,81.543
47.852,50.781,29.785,71.289,69.336
35.645,51.758,27.344,65.43,21.973
21.484,52.246,37.598,59.57,18.066
27.832,50.293,22.949,52.246,26.855
49.805,54.199,38.574,49.316,13.672
56.152,56.152,52.734,53.223,41.504
42.48,52.246,43.457,53.223,69.824
30.762,50.781,15.137,41.992,61.035
32.227,48.828,0.488,28.809,37.109
44.434,45.41,34.18,38.086,37.598
49.805,41.016,35.156,47.852,47.852
39.551,41.504,33.203,38.574,-2.441
25.391,41.016,41.504,30.273,36.133
22.949,37.598,11.23,25.391,75.195
39.062,44.434,20.02,33.203,57.617
53.711,47.852,27.344,47.363,39.551
46.875,47.363,24.902,53.223,3.418
32.227,45.41,22.461,43.457,84.473
28.32,44.922,4.883,30.762,74.219
46.387,48.34,19.531,35.156,-6.348
57.617,47.852,31.738,42.48,26.855
39.551,45.41,21.973,40.039,42.969
24.414,41.504,4.883,26.855,13.184
24.414,42.48,-2.441,13.184,20.508
32.715,46.875,27.832,15.625,37.598
41.504,42.969,31.25,27.832,57.617
34.18,42.969,14.648,28.32,85.449
20.508,47.363,31.738,22.461,53.711
13.672,47.852,31.25,19.043,30.762
26.855,45.898,34.668,15.137,15.137
45.41,46.387,49.316,23.438,11.719
35.645,52.246,42.969,34.668,30.273
19.043,53.711,29.785,27.344,-8.301
16.113,46.875,15.137,16.113,31.738
25.879,40.527,18.555,14.16,73.73
37.598,45.41,40.039,27.832,42.48
34.18,49.805,37.598,31.25,65.918
22.461,49.805,37.109,20.508,28.32
15.625,49.805,31.738,13.184,50.781
25.391,45.898,20.996,13.184,59.57
42.48,47.363,25.391,21.484,-6.836
41.992,46.875,24.414,23.438,-8.789
31.25,51.758,27.832,17.578,12.207
23.926,56.152,15.625,11.719,57.617
33.203,51.27,4.883,7.812,-1.953
51.758,49.316,10.742,17.09,-50.293
46.875,51.27,5.371,24.414,-51.758
34.18,56.152,9.277,21.973,0.488
25.879,57.617,1.465,16.602,38.086
22.949,55.176,-10.254,14.16,45.41
37.109,49.805,4.395,24.902,62.5
41.992,42.48,6.836,34.668,13.184
29.297,43.457,6.348,29.785,10.742
17.578,42.48,0,21.484,32.715
18.555,32.227,-9.766,15.625,8.789
38.086,35.156,9.766,22.461,22.949
50.293,40.039,12.695,36.133,67.871
41.504,39.551,9.766,34.18,48.34
32.227,36.133,-4.395,27.344,31.25
28.32,33.203,-19.531,23.438,6.836
39.551,34.668,11.23,20.508,-19.043
49.805,34.18,10.742,28.32,9.766
40.527,32.227,-10.742,33.203,66.406
24.902,36.621,9.277,27.344,69.824
19.531,35.645,3.418,19.043,8.301
33.691,35.156,9.277,20.996,-2.93
38.574,36.133,34.668,29.785,49.805
27.832,36.133,32.715,28.32,49.316
18.555,41.016,14.648,25.879,-0.488
14.648,45.41,0,14.16,36.621
37.109,49.805,8.301,15.625,42.969
68.359,51.27,19.531,44.434,-16.113
50.293,45.898,16.602,42.969,6.836
14.648,43.945,18.066,16.113,-3.418
14.16,45.41,5.371,12.207,22.461
34.18,44.434,18.066,22.949,84.473
42.48,34.18,37.109,31.25,37.598
40.039,28.809,27.344,41.016,-6.836
39.551,34.18,18.555,41.992,19.531
27.344,31.25,4.395,26.855,49.805
33.691,30.273,1.465,27.344,65.918
56.641,30.273,23.438,40.527,26.367
49.805,29.297,30.762,38.574,31.738
38.086,29.785,21.973,30.762,66.895
26.367,31.25,8.789,19.043,62.012
25.391,28.809,0.488,14.16,-25.391
41.504,25.879,25.391,29.297,-55.664
43.945,23.438,12.207,40.527,10.742
31.738,22.949,11.719,34.18,39.062
24.414,25.391,20.02,23.926,48.34
33.203,22.461,10.742,25.879,0.488
52.246,20.508,35.645,31.738,11.719
54.688,19.531,47.363,36.621,32.227
38.086,21.484,40.039,37.598,-8.789
30.762,26.367,15.625,25.879,-21.484
37.109,25.879,3.418,19.531,-40.527
50.781,26.855,27.344,22.949,-22.461
58.105,23.438,26.855,27.832,26.367
45.898,23.438,20.996,28.809,-29.785
29.297,32.227,36.133,22.461,-9.277
31.738,33.691,21.973,16.602,38.086
49.805,36.133,46.387,24.414,65.918
52.246,34.668,42.48,37.598,101.074
36.621,35.156,20.02,35.645,82.52
26.855,37.598,20.996,31.25,32.715
33.203,34.668,5.371,28.32,3.906
46.387,30.273,14.16,27.344,44.922
54.199,27.832,29.785,38.574,28.32
45.898,30.273,41.992,41.504,61.523
36.133,30.273,22.461,33.203,36.621
28.809,30.273,10.254,25.879,7.812
38.574,33.203,42.48,29.297,38.574
52.246,32.227,49.316,40.039,17.09
41.992,29.297,35.156,40.039,2.441
27.344,31.738,39.062,30.273,12.695
21.973,32.715,17.578,16.602,10.742
36.621,39.551,32.227,13.672,20.508
52.246,45.41,52.734,24.902,7.812
42.969,41.504,32.715,32.227,30.762
32.227,40.527,20.996,27.344,76.66
25.879,41.016,18.066,20.508,19.043
31.738,41.992,32.715,20.02,-45.41
44.434,45.41,62.988,26.855,43.945
43.457,41.504,41.992,29.297,86.914
31.25,39.551,38.574,23.438,12.695
20.02,41.016,50.293,13.672,23.438
29.297,37.598,52.246,16.602,-1.953
41.016,35.645,76.66,19.531,12.207
33.203,31.738,75.684,16.113,60.547
28.809,29.297,72.754,22.949,49.316
20.996,24.902,55.176,14.648,42.48
19.531,22.949,56.641,5.371,58.594
43.457,30.762,89.355,19.531,19.043
48.34,32.715,75.195,29.297,-9.766
37.109,36.133,55.176,26.367,-61.035
24.902,38.574,62.988,21.973,-58.105
26.367,34.668,55.176,22.949,-10.254
49.805,39.551,63.965,37.598,-8.789
55.176,44.434,65.918,44.922,-13.672
39.062,46.875,61.035,38.086,32.715
26.855,40.527,42.48,30.762,47.363
26.855,35.645,26.855,30.273,52.734
42.969,43.945,42.969,38.574,77.148
54.688,44.434,46.875,46.387,77.637
45.41,42.48,37.109,42.969,-12.207
30.762,39.551,34.668,37.598,-22.461
31.25,39.551,20.508,37.598,25.879
44.922,39.551,38.574,43.945,36.133
54.199,35.156,38.574,52.246,43.457
44.434,36.621,22.461,49.316,60.547
31.738,41.016,19.043,40.527,53.223
32.227,45.898,0.977,34.18,65.43
42.969,49.316,20.02,36.133,42.969
49.316,46.875,41.016,40.039,7.324
35.645,43.945,35.645,36.133,18.555
20.02,45.41,29.785,23.438,36.621
12.207,47.852,17.578,14.648,38.086
28.809,50.293,22.949,17.578,4.395
45.41,49.316,32.715,28.32,20.02
35.645,47.363,18.555,34.668,18.066
38.574,55.176,18.555,39.551,3.906
43.945,49.316,9.277,42.48,55.664
35.645,39.551,12.207,31.738,29.785
36.133,38.574,30.762,29.785,12.695
28.809,34.18,29.785,35.156,30.762
14.648,32.227,23.438,33.203,3.906
3.418,29.297,-5.859,19.043,-10.254
17.09,25.879,-2.93,19.043,33.203
38.574,28.809,36.621,26.855,60.547
29.785,34.18,57.617,22.949,90.332
20.508,33.203,48.34,29.785,12.695
13.672,29.785,23.926,22.461,-62.5
20.996,30.273,24.414,17.09,4.883
41.504,34.668,53.711,34.18,40.527
37.598,31.738,54.688,45.898,-22.461
20.02,28.32,50.293,45.41,15.625
11.23,29.785,50.781,34.668,51.27
17.09,32.227,46.387,27.832,47.363
31.25,38.086,50.293,37.598,-10.742
36.621,38.086,36.133,43.457,-1.465
32.227,34.18,26.367,35.156,131.836
21.484,38.086,31.25,27.832,140.625
20.02,34.18,20.508,23.926,84.961
35.156,29.785,46.875,24.902,53.223
41.992,31.738,59.082,36.621,79.59
31.25,34.668,47.852,38.574,103.027
15.137,34.668,23.438,27.344,67.383
12.207,29.785,4.883,17.578,-6.836
32.227,29.297,24.414,21.973,14.16
40.039,31.25,28.32,34.668,62.988
24.902,26.855,17.09,36.133,66.406
12.695,23.438,9.277,24.902,35.645
15.137,23.926,10.742,19.531,4.883
33.203,27.832,37.109,27.344,-15.625
40.527,28.809,41.992,42.48,-1.465
31.738,26.855,36.133,46.875,31.25
21.484,32.227,59.57,36.133,50.781
15.137,34.668,51.27,27.344,44.922
31.738,34.18,54.688,30.273,-28.32
47.363,36.621,66.895,44.434,-3.906
37.109,37.598,60.059,46.387,46.387
29.785,39.062,58.105,39.551,22.949
30.273,36.621,31.738,36.621,40.527
42.48,40.527,33.691,34.668,-0.977
60.547,47.852,47.852,42.969,-59.082
49.316,41.504,31.738,43.457,-43.457
24.414,40.039,41.504,35.645,-5.371
13.184,41.016,36.621,28.32,-5.371
23.438,43.457,34.18,25.879,0
42.48,49.805,43.457,39.551,-21.484
35.645,45.898,24.414,43.945,-16.602
22.949,40.527,7.324,36.621,10.254
16.602,38.086,-1.953,26.855,22.461
24.414,37.598,-5.371,22.949,35.156
40.527,39.062,2.93,35.645,29.785
37.109,44.434,20.508,38.086,74.707
23.926,51.27,26.367,31.738,69.336
19.043,51.758,14.16,30.273,6.836
25.391,46.875,14.16,26.367,-15.137
41.016,44.434,39.551,29.785,38.574
42.969,42.48,14.16,32.227,61.035
28.32,40.527,-10.254,25.879,16.113
11.719,44.922,-0.488,15.137,-0.977
18.555,48.34,-5.859,15.625,-23.438
43.945,51.758,15.137,27.832,40.039
41.504,50.293,29.297,33.691,73.242
25.391,45.41,18.066,35.645,39.062
17.578,38.574,5.371,29.297,55.176
24.414,35.156,7.812,22.949,40.039
43.457,36.133,35.156,28.32,10.742
46.875,33.691,36.133,44.434,1.465
35.645,35.156,20.996,43.945,4.883
45.898,39.551,8.789,47.852,-8.789
61.035,36.133,0.488,58.105,48.34
28.809,40.527,15.625,15.625,59.082
7.812,42.48,9.277,-11.23,50.781
8.301,31.738,-3.418,1.953,105.957
-9.277,31.738,-3.906,-13.184,96.191
-30.762,33.691,-13.672,-37.598,45.898
-31.738,31.738,12.695,-41.504,38.086
-25.391,26.367,36.621,-39.551,49.805
-41.504,31.738,27.832,-41.992,20.508
-61.035,36.621,29.297,-59.57,-30.273
-69.824,34.18,25.879,-77.637,29.297
-59.082,27.344,26.367,-79.59,76.66
-45.41,35.156,23.926,-69.824,61.035
-47.363,53.711,18.066,-56.641,58.594
-60.547,52.246,31.25,-58.594,25.879
-62.012,50.781,31.738,-58.594,20.02
-32.227,50.781,50.781,-40.039,55.664
-7.812,44.922,50.781,-15.625,28.809
-13.672,43.457,9.277,-4.883,-41.504
-20.508,45.898,23.438,-9.277,20.508
-22.949,43.945,31.738,-13.672,76.66
-8.301,40.039,17.578,-9.766,34.18
11.23,42.969,32.227,0.977,-3.906
8.789,41.504,32.715,7.812,22.461
3.906,37.109,25.391,10.742,94.727
-0.977,30.762,-2.441,0,48.34
9.766,28.32,-5.371,1.953,-4.395
28.32,31.25,14.16,20.508,6.836
26.367,32.227,8.789,27.832,-18.555
18.555,31.738,-0.977,27.832,31.25
14.648,34.18,-24.902,18.555,47.363
23.926,37.598,-14.16,18.066,-8.301
41.016,41.992,33.203,27.344,5.371
40.039,39.062,10.742,32.227,-31.738
27.832,39.551,-2.441,27.344,-5.859
16.113,40.527,1.953,16.602,15.625
24.414,39.551,-12.695,15.137,-52.246
48.34,44.434,26.855,21.973,27.832
48.828,42.48,31.738,28.32,42.969
33.203,37.598,20.996,26.855,-0.488
28.809,32.227,11.23,18.066,50.781
32.227,24.414,-16.113,12.695,-6.348
51.27,35.156,2.441,30.273,-32.227
60.547,40.527,4.883,43.945,65.918
48.828,34.668,-12.207,34.668,83.008
31.738,41.016,-2.441,20.996,35.645
27.344,39.551,-9.766,19.531,20.02
41.016,36.133,0.488,26.855,53.711
42.969,39.062,-5.859,32.227,-1.465
30.273,43.945,-10.254,27.344,-55.664
26.367,41.992,-5.371,15.137,15.137
30.273,41.016,-11.719,5.859,22.949
44.922,47.363,1.953,17.578,47.363
59.57,49.805,0.488,42.48,44.434
36.621,42.969,-8.301,25.391,16.113
9.277,41.016,12.695,1.953,32.715
6.348,41.504,13.672,-3.418,31.25
19.043,41.016,17.09,-1.953,38.086
32.227,44.434,22.949,7.324,41.504
21.973,34.668,3.418,2.441,-14.648
15.625,30.762,-0.977,-3.906,-22.949
10.742,38.574,-4.395,-8.301,39.062
19.043,41.504,12.207,-3.906,65.918
40.527,44.434,30.273,7.812,70.801
31.25,44.434,23.926,7.324,21.484
16.113,38.086,14.648,5.371,2.441
12.695,37.598,-1.465,2.93,65.43
20.996,37.109,5.371,5.859,52.734
40.039,40.527,46.387,29.785,33.203
38.574,39.551,40.527,36.133,29.785
24.414,29.785,29.785,23.438,-21.973
14.648,31.25,38.574,17.09,13.672
27.832,38.086,35.645,19.531,54.199
48.34,40.527,50.293,29.785,22.949
42.969,36.133,46.387,34.668,8.789
32.227,36.133,39.551,32.227,41.992
27.344,37.109,28.32,26.855,81.055
36.133,26.367,11.719,25.391,84.473
59.57,23.438,33.203,31.738,44.922
58.594,29.297,24.414,37.598,46.875
41.504,23.438,3.418,33.691,0.488
29.297,20.996,9.277,29.297,-40.039
33.203,27.344,-0.488,30.762,-40.039
50.781,26.855,18.555,35.645,20.508
51.758,22.949,17.578,43.457,108.887
38.086,25.391,3.418,41.016,115.234
29.785,23.926,-8.301,28.809,55.176
35.645,21.484,-8.789,26.855,48.34
53.223,27.832,7.324,36.621,73.73
58.594,32.715,0.488,43.945,20.02
44.922,33.691,12.207,39.551,16.113
35.645,31.738,11.719,32.715,0.977
34.668,29.785,-8.301,26.855,11.719
44.922,29.297,6.836,27.344,8.789
51.27,32.715,25.879,39.062,54.199
43.945,39.062,26.855,39.062,45.898
31.25,41.992,33.203,28.809,20.508
23.438,33.203,13.672,19.043,34.668
37.598,26.855,17.578,20.996,-9.277
53.711,34.668,41.504,34.668,33.691
46.387,34.18,34.18,31.25,37.598
31.25,28.32,30.273,20.996,-3.418
28.809,24.902,34.668,20.996,14.16
42.48,12.695,60.059,27.832,30.273
56.152,14.16,77.148,41.992,64.941
52.246,26.855,62.988,48.828,62.988
39.551,34.668,53.711,39.062,-11.23
26.855,36.133,41.992,25.391,9.766
36.133,29.785,54.199,28.32,51.27
48.828,26.367,80.078,36.621,61.523
38.574,17.09,44.434,33.691,6.348
23.926,14.16,46.875,22.461,44.434
19.043,17.09,49.805,9.766,62.5
36.133,17.578,23.438,20.996,-10.254
48.34,25.879,55.176,34.18,0.977
43.457,30.762,51.27,32.227,4.395
33.203,30.762,40.527,28.809,29.785
20.508,33.691,40.527,20.996,83.496
29.785,33.203,29.785,15.625,8.789
53.711,33.203,64.453,23.438,-8.301
48.34,30.762,72.754,32.227,68.359
27.344,25.879,58.594,29.785,51.27
21.484,25.879,37.109,20.02,6.836
26.855,27.344,27.344,13.672,13.184
36.133,29.785,60.059,22.461,13.672
40.039,24.902,48.828,36.133,24.902
33.203,23.438,20.508,28.809,6.836
17.09,36.621,48.828,10.254,-2.93
14.648,47.852,62.012,7.324,100.586
43.457,45.898,46.387,17.09,89.355
49.805,38.086,34.668,25.879,23.438
31.25,36.621,27.832,23.438,15.625
23.926,34.18,29.785,19.531,-14.16
22.461,29.297,25.391,15.625,15.137
40.527,35.156,40.039,22.949,53.711
46.875,39.062,57.617,38.574,58.594
37.109,36.133,50.781,35.156,-1.953
31.25,37.109,33.203,24.414,2.441
28.32,38.086,18.066,20.996,31.25
40.039,39.062,42.48,27.344,35.645
49.316,37.598,59.082,34.18,55.664
38.574,31.25,27.832,27.344,58.594
23.438,33.691,27.832,16.602,-11.719
13.184,37.598,31.25,20.02,-51.27
29.785,34.18,30.273,25.391,-44.434
46.875,34.18,46.387,28.809,-19.043
38.086,31.25,38.574,29.785,-8.301
24.902,31.738,31.738,20.02,-1.953
20.996,43.945,15.625,13.184,42.969
40.527,46.387,13.672,19.043,14.16
53.711,46.875,38.574,27.344,35.645
43.945,48.828,41.992,32.227,121.094
34.18,54.199,20.02,27.344,75.195
23.926,54.199,-0.488,19.043,34.668
33.203,45.898,19.043,16.602,52.734
50.781,42.969,45.41,25.391,53.711
43.457,38.574,49.805,36.621,43.945
29.785,38.574,50.781,32.715,47.852
24.414,39.062,22.949,16.113,59.57
37.598,46.875,4.883,13.672,19.043
57.129,48.34,37.598,23.438,20.996
49.316,37.598,28.809,30.273,36.621
33.203,42.48,7.812,24.902,-66.406
22.461,51.758,24.902,15.137,-96.68
26.367,49.316,39.551,19.531,-2.441
42.969,47.852,51.27,25.879,62.5
41.016,49.805,46.875,32.715,35.645
30.762,51.758,46.875,32.715,30.273
26.855,45.898,25.879,20.508,50.293
31.738,37.109,12.207,18.555,50.293
50.781,41.504,37.109,29.785,77.637
53.711,50.781,38.574,37.598,89.355
37.109,45.898,33.691,36.621,46.875
27.832,40.039,12.695,21.484,2.93
28.32,43.457,-0.488,10.254,26.855
42.48,45.898,25.879,19.043,26.855
54.688,44.922,21.484,31.25,8.301
45.898,39.551,-1.465,30.273,-26.367
28.809,39.551,-1.465,14.648,-25.879
25.391,40.527,-5.859,4.395,29.785
45.898,38.574,3.906,14.648,62.012
58.105,39.551,7.812,30.273,4.883
38.574,40.527,14.648,27.832,11.23
22.461,38.086,13.672,16.113,47.852
29.297,32.227,-20.996,7.812,52.734
43.457,27.832,-23.438,16.113,-3.418
48.828,32.227,10.254,31.25,-10.742
39.062,36.133,-6.836,30.273,28.32
27.832,36.621,-15.137,24.902,22.949
23.438,47.852,-1.953,19.043,74.707
41.504,56.152,-2.441,23.926,45.41
53.711,48.34,10.742,35.156,0.488
43.945,46.387,5.371,36.133,10.742
34.18,48.34,-1.953,32.715,69.336
28.32,44.922,-21.973,24.902,30.273
44.434,47.852,-4.883,28.809,-4.883
62.5,51.27,21.484,42.48,-9.766
51.27,48.34,12.207,42.48,35.156
33.203,43.945,-5.859,36.133,45.41
24.902,40.527,-19.043,21.973,-29.785
35.645,41.016,-8.789,20.02,-41.016
48.828,43.945,21.973,34.18,-23.926
40.039,36.133,14.16,36.621,21.484
29.297,36.621,13.672,29.297,83.008
20.996,38.574,20.508,23.438,79.102
33.691,39.551,8.789,24.902,52.246
49.316,46.387,37.598,33.203,116.211
41.504,34.18,35.156,37.109,3.418
36.133,40.527,34.668,37.109,-1.953
26.367,49.805,29.297,29.785,110.352
28.809,43.945,17.578,25.879,51.758
45.898,48.828,48.828,31.25,21.484
46.875,47.852,53.223,37.109,34.18
31.738,40.527,33.691,33.203,68.848
17.09,39.062,19.531,23.438,40.527
20.508,37.598,14.648,19.531,-11.23
41.504,45.898,44.922,26.367,80.078
44.434,48.34,34.668,36.133,108.398
33.691,41.504,12.695,36.621,0
33.203,37.598,34.668,38.574,4.395
41.504,32.227,28.809,45.898,0.977
43.457,39.062,33.691,28.809,10.742
40.039,38.086,35.156,22.461,36.621
38.086,22.949,7.812,41.016,18.555
30.273,29.297,15.137,43.457,63.965
27.344,37.109,20.02,33.691,54.688
52.246,38.086,21.484,35.645,1.953
70.312,42.969,36.133,53.711,7.812
65.918,35.645,38.574,62.5,60.059
55.176,32.715,29.785,52.734,94.238
50.781,36.621,14.16,48.828,64.941
76.172,37.598,30.762,59.082,-6.348
91.797,41.504,52.734,70.801,21.973
79.59,36.133,37.109,70.312,41.992
73.242,34.668,15.625,68.359,-4.883
68.359,42.48,14.16,61.035,33.203
83.496,42.969,20.996,64.941,52.246
105.469,44.922,33.203,80.078,15.625
92.773,45.898,33.691,82.52,7.812
71.289,41.992,30.762,76.66,-1.953
60.547,41.504,25.879,68.359,-3.418
70.801,41.992,34.18,70.312,25.879
82.031,43.945,48.34,84.961,53.223
75.684,45.41,43.945,90.332,55.176
62.988,47.363,31.738,85.449,-11.23
49.805,41.992,7.812,75.195,-41.504
68.359,40.039,14.16,71.777,30.762
88.379,45.41,47.363,78.125,34.18
71.777,45.898,41.992,74.707,7.324
57.129,39.062,7.324,66.406,-17.09
45.41,36.621,18.066,52.246,-30.273
46.387,41.504,28.809,45.41,6.836
65.918,41.992,17.578,56.641,12.695
65.918,38.086,21.484,64.941,82.031
54.199,33.203,15.625,62.012,87.891
41.504,28.809,-3.906,50.293,18.555
43.457,26.367,-12.207,42.48,-33.203
64.941,25.879,13.184,55.664,28.809
63.965,22.949,9.766,63.477,54.688
50.293,23.438,-8.789,48.828,13.184
40.039,24.414,9.277,38.574,68.359
52.734,22.949,6.836,42.969,54.688
77.637,24.902,28.32,53.711,-1.953
76.66,27.344,38.574,65.918,-6.836
61.035,28.32,32.227,61.523,64.453
46.387,27.344,37.598,47.852,72.266
46.387,27.344,24.902,38.086,39.062
69.336,33.203,20.996,41.504,8.301
73.73,37.109,33.203,53.223,12.695
56.641,27.832,22.461,52.246,32.715
45.898,24.902,1.953,42.48,-2.93
45.41,32.715,0.488,37.109,28.809
61.523,32.715,21.484,43.945,-9.766
71.777,32.227,27.832,56.152,-33.203
61.035,35.156,13.672,56.641,25.391
43.945,38.574,9.766,45.898,46.875
40.527,42.48,4.883,37.109,103.516
56.641,43.457,21.484,46.387,69.824
61.523,44.434,52.246,57.617,1.465
51.27,40.039,39.062,57.617,48.828
45.41,37.598,29.297,47.363,61.035
36.133,38.086,21.973,34.18,-13.184
46.875,36.133,29.785,32.227,-48.828
60.059,40.527,68.848,43.457,13.184
46.387,40.527,45.898,42.48,4.395
31.738,39.062,41.992,30.273,26.855
24.414,41.016,54.688,25.391,44.922
32.715,40.039,51.758,28.809,78.613
51.758,40.039,62.012,39.551,30.762
43.945,39.062,54.688,41.504,-35.645
31.25,36.133,53.223,35.156,41.992
27.832,31.25,41.016,24.902,27.344
37.598,29.297,42.969,26.367,0
59.082,28.809,60.547,38.086,43.457
50.293,26.855,53.223,37.109,24.902
34.18,32.715,44.434,27.344,28.809
30.273,35.156,38.574,14.16,62.988
37.598,30.762,48.34,14.648,9.277
52.246,34.18,78.613,25.879,13.184
51.27,38.086,61.035,31.738,29.785
42.969,42.48,38.574,30.273,31.738
30.762,45.898,38.086,23.438,47.363
34.18,43.457,34.668,22.461,44.922
59.082,40.527,48.828,30.273,43.457
56.641,39.062,43.457,37.598,-0.488
38.086,37.109,11.23,30.762,49.316
28.809,41.992,10.742,17.09,66.895
27.832,48.34,29.297,18.555,6.836
46.875,49.805,47.363,28.32,32.715
50.293,47.852,35.156,35.156,46.387
40.527,39.062,-4.395,27.344,-41.992
29.297,35.156,-10.742,14.16,-29.297
24.902,36.133,-12.695,8.789,-4.395
42.969,43.457,4.883,9.766,0
50.293,48.34,15.625,23.926,28.32
33.691,46.875,11.719,28.32,43.457
19.043,45.41,5.371,16.602,29.297
20.996,40.527,-16.113,8.301,-7.324
38.086,42.969,7.812,13.184,-49.316
41.992,45.41,44.922,24.414,-107.422
34.18,45.41,52.246,30.273,-19.531
26.855,50.781,42.969,26.367,44.922
20.508,48.828,34.18,20.508,48.828
35.645,46.387,37.109,27.344,77.148
52.734,52.734,38.574,31.738,12.207
41.504,48.828,13.672,24.414,-9.766
30.273,45.41,13.184,22.461,-21.484
26.855,51.27,29.297,16.113,8.301
35.156,50.293,31.25,17.09,74.707
53.711,49.805,36.133,34.668,32.715
51.27,55.176,37.109,34.668,85.938
32.715,51.27,28.809,20.02,90.332
19.531,46.387,11.23,4.883,-39.551
31.25,47.852,13.672,5.859,-20.996
50.293,46.387,35.156,24.902,-35.645
43.457,41.504,22.461,31.738,-36.133
31.25,41.992,15.137,22.949,43.945
25.391,42.969,29.297,19.531,56.641
40.527,40.039,28.809,22.461,36.133
56.152,41.016,41.504,24.414,72.266
49.805,40.527,30.762,26.855,101.562
38.574,41.016,20.508,24.414,52.734
23.438,44.434,16.602,11.719,15.137
26.367,46.875,25.879,5.371,-13.184
46.387,50.781,66.895,15.625,23.926
45.898,49.316,57.617,28.809,53.711
33.203,50.293,32.227,20.02,60.547
20.02,51.27,36.133,7.324,37.109
24.414,47.363,31.25,5.859,32.227
44.922,51.758,54.688,15.137,73.242
41.992,52.734,50.293,27.832,70.312
27.832,45.41,20.996,26.855,-40.039
16.602,48.34,31.738,17.09,4.883
24.414,53.223,18.555,9.766,95.703
44.922,56.152,25.391,14.648,73.73
46.875,57.129,38.574,23.438,48.828
41.016,55.176,16.113,21.973,27.344
29.297,56.641,20.996,10.742,6.836
24.414,57.129,27.832,10.742,21.973
42.48,52.734,43.945,20.996,61.523
49.316,47.363,59.082,24.902,81.055
38.574,43.945,35.645,20.508,31.25
22.949,42.969,24.902,12.695,23.438
17.578,44.434,18.066,4.395,11.719
39.551,51.758,34.18,10.254,11.719
48.34,52.246,56.641,27.832,20.996
32.715,46.387,39.062,30.273,3.418
22.461,45.41,37.598,15.137,48.828
20.996,45.41,48.34,9.277,50.781
32.715,40.527,71.289,10.742,34.18
43.945,34.668,100.586,15.137,53.711
35.645,31.738,81.055,24.902,-7.324
21.973,32.715,58.105,17.578,-34.668
14.648,36.133,46.387,5.371,50.293
30.273,44.922,50.781,14.16,95.215
49.316,49.316,64.941,26.367,53.223
41.504,49.805,47.363,31.25,20.996
29.297,51.758,27.832,25.391,53.711
18.555,50.293,29.297,12.207,72.266
26.367,51.758,41.504,12.207,20.996
47.852,59.57,63.477,27.832,-12.695
40.527,55.176,47.363,33.203,9.277
23.926,46.875,28.809,19.531,55.176
20.02,45.898,36.621,9.277,36.621
29.297,45.41,54.199,13.184,41.016
46.875,51.27,79.59,25.879,27.832
44.922,48.34,62.5,29.785,8.301
29.785,44.434,42.48,20.508,20.996
16.113,43.945,33.203,10.742,31.25
21.484,41.504,18.066,9.766,35.645
36.621,42.48,48.34,15.137,8.301
34.668,41.992,63.477,23.926,4.883
25.879,38.086,45.41,22.461,-20.02
17.09,40.039,39.062,11.719,-36.621
22.949,39.062,29.297,10.254,-0.488
45.898,39.551,55.176,22.949,13.184
51.758,40.527,56.152,35.156,22.949
37.598,33.203,27.344,33.203,-4.395
24.414,28.809,30.273,22.949,-26.855
24.414,29.785,33.691,21.484,9.766
37.598,31.25,47.363,30.273,30.273
47.363,32.227,55.176,38.574,58.594
40.039,30.273,35.645,32.715,50.293
21.973,34.668,39.062,22.949,46.875
20.508,40.039,46.387,20.508,11.23
42.48,43.945,59.57,31.738,6.836
53.223,47.363,66.895,45.898,-3.906
40.527,43.945,49.316,36.621,8.301
29.297,43.945,46.875,24.414,59.082
27.832,43.457,47.363,20.02,68.359
35.156,40.039,69.824,24.902,81.055
41.504,41.016,82.031,33.203,64.453
32.715,42.969,60.547,32.227,-27.832
23.438,42.969,39.062,22.461,-24.902
22.461,41.992,18.066,14.16,6.836
35.645,40.527,26.367,12.695,8.301
41.992,35.156,49.316,15.137,14.16
31.25,31.25,26.855,20.02,28.809
27.344,32.227,12.695,13.184,25.391
16.602,34.18,31.738,9.277,64.453
23.438,35.156,37.109,12.207,103.516
43.457,38.086,54.688,22.461,34.18
35.645,35.645,42.969,27.344,-17.09
27.344,35.645,31.738,19.531,44.434
21.973,32.227,15.137,14.16,89.355
23.926,30.273,-0.977,13.184,72.266
38.086,39.062,23.926,24.414,33.203
32.227,43.457,28.32,27.344,17.09
21.973,45.41,20.508,16.113,21.973
14.16,47.363,31.738,7.324,44.922
19.531,43.945,34.18,7.324,102.051
37.598,42.48,45.41,17.09,60.059
36.133,40.527,41.992,26.855,37.598
23.438,33.691,23.926,28.32,72.266
12.695,29.785,7.324,20.02,42.969
20.996,31.25,7.324,13.672,37.598
41.992,32.227,31.738,23.926,24.414
46.875,30.762,25.879,39.062,-13.184
34.668,31.25,2.441,36.133,-14.648
20.02,40.039,18.555,24.414,-0.977
29.785,46.387,20.02,22.949,2.93
47.363,44.434,25.391,33.203,16.113
44.922,39.551,40.039,38.086,-6.348
32.715,36.621,32.227,34.18,13.184
17.578,36.621,27.344,29.297,19.043
24.902,35.156,15.625,26.367,-39.551
49.805,39.551,33.691,32.227,-28.32
50.293,45.41,46.875,45.898,-17.09
30.762,38.574,35.645,44.922,20.508
19.531,30.273,27.344,28.809,83.496
23.926,34.18,12.207,24.414,46.387
40.039,38.086,32.715,29.785,22.461
44.922,37.109,60.059,36.133,46.875
34.18,32.227,45.41,36.621,-17.578
18.555,27.344,40.039,28.809,8.789
14.648,26.855,27.344,21.484,20.508
33.203,30.762,35.156,22.461,-50.293
40.527,37.109,67.383,30.762,22.461
33.691,36.133,45.41,34.668,81.055
22.949,39.551,28.809,31.25,54.199
18.066,46.387,35.645,22.461,50.293
34.18,41.504,26.367,27.344,25.391
41.504,36.621,52.734,34.18,18.555
26.855,29.785,49.805,29.785,8.301
20.02,30.762,41.992,24.414,0
16.113,37.109,59.57,16.602,68.359
24.414,35.156,57.129,22.461,53.223
44.434,36.621,64.453,39.062,9.277
37.598,36.133,57.129,42.48,60.059
29.297,35.156,50.293,27.344,125.977
25.879,36.133,44.922,22.461,67.871
33.203,40.527,63.965,24.902,46.387
53.711,47.363,84.473,31.25,71.289
57.129,52.734,62.012,35.156,93.75
47.363,54.688,58.594,41.992,93.75
34.668,50.781,58.105,35.156,56.152
37.598,50.293,41.992,26.855,14.648
50.781,51.27,72.266,35.156,13.184
47.363,46.875,73.242,41.504,60.059
36.621,46.875,50.781,37.598,49.805
20.996,48.828,47.363,21.973,15.137
22.949,48.828,35.156,15.625,-18.555
42.969,49.805,47.852,23.438,-29.297
41.992,47.363,49.316,28.809,54.199
30.273,41.504,29.297,21.973,72.754
23.438,38.574,25.879,13.672,26.855
22.461,42.969,23.926,14.648,39.062
37.598,49.316,52.246,20.02,59.082
33.691,45.898,70.801,26.367,78.125
22.461,39.062,23.926,18.066,44.922
20.508,40.039,11.23,4.883,4.883
16.113,42.969,47.852,-0.488,32.227
32.227,48.828,54.199,8.301,15.137
42.48,52.734,52.734,22.949,-56.641
30.762,51.27,51.758,23.926,-56.641
22.949,48.34,51.758,15.625,43.945
26.367,46.387,33.691,9.766,35.156
44.434,47.363,36.621,17.09,-8.301
56.641,49.805,62.988,30.273,45.41
38.574,41.016,27.832,29.297,17.09
20.508,40.527,1.953,19.043,57.129
22.461,49.316,8.789,10.742,89.844
41.992,45.41,14.648,16.602,43.457
52.246,39.062,37.109,30.273,-9.277
44.434,38.086,33.203,36.621,-15.625
33.203,41.504,19.043,28.32,45.41
25.879,43.457,6.348,12.695,90.332
37.109,45.898,2.93,18.555,84.473
50.293,47.852,12.207,32.227,40.527
41.992,42.969,-0.488,33.691,15.137
31.25,38.574,-1.953,29.785,32.227
22.949,35.156,-3.418,20.02,41.016
39.062,29.785,-12.695,18.066,-41.504
54.688,33.203,18.066,31.25,-7.812
39.062,33.203,12.207,35.645,29.297
27.344,24.902,-11.719,23.438,-28.32
19.531,24.414,11.719,18.066,-41.016
23.926,29.785,23.438,20.02,37.598
40.039,28.32,41.992,28.32,44.434
33.691,21.973,42.969,38.086,19.043
22.461,21.484,28.32,35.156,8.301
19.043,23.438,20.02,26.855,11.23
15.625,27.832,34.18,24.414,83.496
28.809,30.762,64.453,30.762,74.707
35.156,28.809,55.176,38.086,27.344
27.832,28.809,27.832,35.645,-17.09
20.02,34.668,37.598,27.344,13.672
23.438,34.18,33.203,27.344,35.645
39.062,33.203,44.434,30.273,-10.254
36.621,33.203,68.359,28.32,-6.836
25.391,27.344,52.246,23.926,20.508
15.137,24.902,41.504,14.16,58.105
23.438,26.855,31.25,11.23,10.254
47.852,27.832,38.574,21.484,-2.93
50.781,29.297,62.988,31.738,41.992
43.457,29.297,45.898,25.391,37.109
37.109,33.691,25.391,13.184,42.48
34.18,39.062,35.645,16.113,41.504
49.805,36.133,50.293,30.273,32.715
55.176,35.156,60.547,40.527,84.961
46.875,32.227,39.062,39.551,52.734
37.598,33.691,21.973,25.391,-15.137
30.273,38.086,18.066,19.531,9.277
44.434,41.504,38.574,26.367,-4.883
52.734,41.504,56.641,35.156,-3.418
43.457,31.738,39.551,37.598,60.547
33.691,30.273,41.016,31.25,92.773
24.414,33.203,42.969,20.996,22.461
36.621,31.738,46.875,17.578,24.902
50.293,36.133,62.988,30.273,33.691
39.062,34.668,29.297,35.156,-9.277
26.855,30.273,8.301,24.414,15.625
21.484,32.227,1.953,13.672,-54.199
32.227,39.551,12.207,17.09,-28.809
46.387,43.945,39.062,32.715,57.617
41.504,46.387,28.32,38.574,14.16
27.832,48.828,21.973,34.668,8.301
20.02,47.852,18.555,25.391,19.531
27.344,46.387,18.555,25.391,-5.859
41.504,47.363,44.922,30.762,-28.32
35.645,49.805,51.27,35.645,-11.23
21.973,52.734,44.922,29.297,2.441
8.789,48.828,43.945,7.812,4.395
12.695,46.387,41.016,5.859,39.062
37.109,51.758,67.383,22.949,75.684
38.086,49.805,62.012,33.691,7.812
25.391,47.363,38.574,29.785,5.371
19.043,51.27,42.969,25.879,62.012
24.414,51.758,44.922,27.832,2.441
45.898,53.711,57.129,35.645,13.184
48.828,55.176,55.176,42.969,48.828
34.18,49.316,45.898,36.133,47.852
28.809,42.969,44.922,28.32,24.414
32.227,41.016,35.645,22.461,1.465
44.922,41.992,47.852,30.762,32.227
41.504,41.504,55.176,42.969,44.434
28.809,38.574,29.785,41.504,38.574
20.02,42.48,25.391,34.668,39.551
21.973,45.898,24.414,29.785,4.883
41.504,43.945,33.691,33.203,43.945
46.387,42.969,40.527,41.504,33.203
33.691,40.527,12.695,42.969,8.789
16.602,41.504,7.812,31.738,44.434
11.23,41.016,8.789,20.508,-30.762
28.32,44.922,30.762,25.879,-25.391
37.109,45.898,48.828,42.969,9.766
30.762,37.598,34.668,44.434,-31.738
19.043,43.457,28.32,32.715,17.578
18.555,46.387,22.461,23.926,37.598
31.738,42.48,44.922,31.738,-32.227
38.574,50.293,67.871,47.363,3.418
33.203,47.852,56.641,50.293,27.832
21.973,40.039,38.574,44.434,75.195
22.949,42.969,21.973,35.645,79.102
41.504,41.016,30.762,31.25,70.801
42.969,38.574,65.43,39.062,75.195
29.785,31.738,44.434,42.48,26.855
22.949,28.32,18.555,38.574,56.152
14.648,34.18,27.832,26.367,28.809
20.508,35.645,32.227,20.996,12.207
41.504,37.598,46.875,34.668,27.344
41.992,40.527,38.086,47.363,7.812
26.367,42.48,28.32,41.504,48.828
22.949,43.457,26.855,32.227,70.801
36.621,41.504,28.809,37.109,54.199
57.129,41.504,56.641,49.316,52.246
50.293,40.527,62.988,59.082,47.852
33.203,38.086,32.227,44.434,17.09
26.367,43.945,29.297,29.785,3.906
33.691,54.199,46.875,33.203,32.715
52.734,56.152,71.777,41.992,47.852
66.406,40.039,68.848,57.129,22.461
67.383,37.109,55.664,74.219,48.828
32.715,57.617,53.711,38.574,70.801
10.742,65.43,41.992,-2.93,17.09
23.926,67.871,67.383,6.348,32.715
25.391,56.152,79.59,25.391,44.434
0,57.129,59.082,10.742,35.645
-26.855,78.613,37.598,-16.113,35.156
-29.297,68.359,34.668,-34.18,-8.789
-30.273,51.758,62.012,-43.457,-9.277
-33.691,52.734,77.148,-29.785,63.477
-48.34,49.316,46.387,-38.086,83.984
-67.871,26.855,27.832,-62.988,68.848
-75.195,30.762,37.598,-68.359,29.785
-63.965,60.547,51.758,-59.082,25.879
-55.664,66.406,69.336,-48.34,17.578
-67.383,49.805,65.43,-47.363,59.082
-75.684,55.176,49.316,-54.199,57.129
-73.242,59.082,34.18,-52.246,21.973
-44.922,44.922,43.945,-35.156,33.203
-18.555,38.086,71.289,-14.16,13.184
-19.043,39.551,71.777,-8.301,51.27
-20.996,52.734,48.828,-8.789,65.43
-16.602,60.059,34.668,-14.16,78.125
8.301,53.711,39.062,-2.441,24.902
24.414,59.57,62.012,16.602,-30.762
19.531,64.453,49.316,20.996,-0.488
8.301,65.918,36.133,20.02,8.789
4.883,73.242,38.086,12.695,35.156
28.32,76.66,36.133,6.836,49.805
40.527,80.566,46.875,20.996,17.578
32.715,82.52,43.457,31.738,41.016
30.762,84.473,36.133,18.555,23.438
25.879,87.402,41.016,8.789,33.691
41.016,85.938,34.668,17.578,18.066
63.965,86.426,51.758,28.32,4.395
56.641,84.961,58.594,35.156,41.016
47.363,78.613,24.902,36.133,58.105
38.086,72.754,24.414,23.438,68.848
41.504,71.777,33.203,21.484,2.441
65.918,76.66,37.109,34.668,-62.988
64.941,75.684,37.109,41.504,-9.277
44.434,72.754,14.16,36.133,18.066
34.18,73.73,0.488,29.297,23.438
38.086,73.242,0.977,28.32,15.137
59.57,77.637,26.367,35.645,30.273
59.082,78.125,28.809,47.852,55.664
35.645,72.266,-12.207,41.504,27.344
21.973,66.895,-9.277,24.902,22.461
21.973,66.406,14.16,20.996,12.695
37.109,66.406,28.809,28.32,32.227
46.875,63.477,33.691,36.133,62.012
41.504,59.57,17.09,33.203,37.109
25.391,53.711,7.324,21.973,-29.297
20.508,52.734,2.441,15.137,12.207
39.062,54.688,9.766,25.879,62.988
47.363,54.688,30.762,37.598,41.016
42.48,48.34,27.344,37.598,64.453
36.621,44.922,15.137,29.785,62.012
40.039,55.176,4.883,35.645,39.551
59.57,64.453,13.672,44.434,15.137
51.27,60.059,29.785,33.691,-42.969
21.484,49.805,15.625,21.484,-20.02
8.301,48.828,20.508,15.137,36.621
8.301,55.664,27.832,13.672,39.551
23.926,53.711,38.086,14.16,42.48
40.527,49.805,51.758,24.414,48.34
32.227,51.27,22.461,29.297,-3.906
19.531,48.34,9.766,28.809,-4.883
21.484,46.387,32.227,24.414,-5.371
32.715,46.875,46.387,22.461,21.973
41.992,45.898,51.27,33.203,39.062
32.715,36.133,25.391,33.691,-25.391
18.066,35.645,8.301,24.902,8.301
8.301,37.109,7.812,13.184,75.684
23.926,22.949,9.277,14.16,49.805
46.875,26.367,39.551,27.344,34.18
38.574,29.785,29.785,27.832,22.461
23.438,26.855,-10.254,17.09,-19.043
12.695,34.668,0.488,6.348,-3.906
20.02,44.434,35.645,2.93,64.941
40.039,45.41,56.641,15.137,65.918
34.18,41.992,44.434,23.926,78.125
23.926,42.969,26.367,29.297,130.859
17.09,41.504,23.438,17.578,87.402
30.762,39.551,20.02,13.184,10.742
52.246,45.41,34.668,29.297,-54.688
46.387,51.758,43.945,39.062,-5.371
35.645,54.688,27.344,37.109,53.711
26.367,56.641,28.809,35.156,8.789
31.738,56.641,37.109,41.992,-17.578
53.711,55.176,55.176,52.734,-25.879
56.152,50.293,66.406,53.711,-26.367
40.527,44.434,36.133,43.457,27.832
32.227,42.969,29.297,37.598,28.32
38.086,42.48,54.199,35.156,48.34
60.547,48.34,57.129,42.969,68.848
65.918,54.688,59.082,47.852,56.152
49.805,51.27,48.34,48.828,70.801
32.715,43.945,41.016,41.992,95.215
37.109,37.598,31.738,38.574,112.793
60.547,42.969,31.738,47.363,93.75
68.848,46.875,50.781,47.852,73.242
57.617,38.086,31.738,47.363,63.477
43.457,44.434,6.836,44.922,76.172
42.48,54.199,16.602,37.109,97.656
55.664,51.27,24.414,38.574,26.367
67.871,50.781,35.645,48.828,-15.625
59.57,49.805,40.527,51.758,59.082
44.434,47.363,33.203,54.199,77.148
42.48,49.316,22.949,43.945,15.137
54.688,54.199,28.32,30.273,-19.531
63.477,54.199,35.156,43.945,-9.766
55.664,45.41,15.625,55.176,36.621
45.898,42.969,-7.324,50.781,-4.395
41.016,36.133,-3.906,34.18,-75.195
54.688,36.133,14.648,32.227,-23.926
65.43,45.41,37.109,51.758,63.477
57.617,38.574,25.391,54.688,88.379
45.898,48.34,-2.441,39.551,13.184
34.18,54.688,9.766,28.809,-61.035
42.969,56.152,21.484,24.902,21.484
58.105,56.152,31.25,33.691,102.051
48.34,43.945,10.742,39.551,125.488
30.273,36.621,-21.973,34.668,55.176
25.391,35.645,-11.23,26.855,20.508
41.016,39.062,0.977,30.273,35.645
61.035,46.875,35.156,36.133,65.43
54.688,47.852,39.551,37.109,151.367
40.039,47.363,0,35.645,98.633
30.762,45.41,11.23,23.926,52.246
33.203,41.016,23.926,15.625,7.812
55.664,51.27,34.18,27.344,-38.574
56.641,41.504,48.34,39.062,45.898
41.992,34.668,29.297,35.156,81.543
32.715,47.852,14.648,23.438,29.785
36.133,54.688,15.137,16.602,-1.953
54.688,55.664,35.156,22.461,1.465
62.012,40.039,32.715,37.109,28.809
49.805,36.133,23.926,38.574,0.977
21.484,47.852,18.066,18.066,-34.18
24.902,52.734,10.254,18.066,-37.598
52.734,48.34,28.32,30.762,30.273
56.152,40.527,27.344,39.062,11.23
41.992,49.316,5.371,36.133,-53.223
24.414,56.152,-3.418,15.137,22.949
22.949,51.758,-9.277,7.812,12.207
37.109,51.27,0.488,23.926,-41.504
39.062,46.387,29.785,35.645,11.719
36.133,33.203,20.508,44.922,26.367
31.25,31.25,4.883,46.875,-10.254
25.391,41.504,24.414,38.574,-11.719
41.504,42.969,48.828,37.598,41.016
47.363,43.457,62.988,41.992,72.754
28.809,42.969,20.996,45.898,55.664
18.555,30.762,-6.348,36.621,43.945
14.648,27.832,6.836,16.602,12.695
27.344,45.898,23.438,22.949,30.273
44.434,56.641,40.527,43.457,-21.973
37.598,47.852,36.133,47.852,-9.277
29.785,42.969,18.555,45.898,16.602
26.855,46.875,6.348,37.598,-30.273
39.551,43.945,26.367,49.805,5.859
54.199,45.898,52.734,68.359,48.828
43.945,43.945,40.527,73.242,65.918
31.738,45.41,29.785,62.988,62.012
19.043,53.711,35.156,42.969,68.848
29.785,55.176,34.668,45.41,49.316
46.875,53.223,35.156,54.688,9.277
34.18,47.852,24.414,55.664,0.488
20.02,47.363,17.09,49.805,6.836
11.719,55.664,9.277,37.598,32.227
18.555,57.129,16.113,37.109,51.758
39.551,47.852,40.039,50.293,37.109
39.062,37.109,33.203,61.035,31.738
28.32,48.34,14.16,60.547,67.383
18.555,54.688,-1.465,49.805,39.062
22.461,45.41,0,44.922,2.441
38.086,46.875,21.484,45.898,3.418
34.18,54.688,19.043,49.805,-34.18
29.297,52.734,-13.672,50.781,23.926
21.973,49.316,-15.137,37.109,31.738
21.973,50.293,30.273,37.109,37.598
38.574,46.387,37.109,51.27,70.312
40.039,47.852,44.922,58.594,36.621
30.273,48.34,34.668,59.082,54.199
16.113,43.945,10.742,49.805,50.781
15.137,38.086,10.254,36.621,66.406
35.156,41.504,33.691,34.668,43.945
43.945,46.875,53.711,44.922,8.789
34.668,45.898,28.32,42.969,17.578
21.484,50.293,4.395,29.785,14.16
22.949,50.293,1.465,23.926,27.832
38.574,51.758,21.484,23.438,13.184
44.434,47.363,53.711,33.691,19.531
43.945,36.133,32.227,44.922,26.367
34.668,35.156,15.625,41.016,4.883
26.367,42.969,26.367,37.109,13.672
48.34,48.828,18.066,41.992,-1.465
69.824,53.223,36.621,49.805,4.883
59.57,58.594,27.832,50.781,52.246
46.875,52.734,14.648,43.457,103.027
44.922,50.781,9.277,34.18,52.734
53.223,48.828,14.16,38.086,13.184
60.547,41.992,39.551,47.363,10.742
48.828,41.504,27.344,47.363,8.301
35.645,43.457,8.789,38.086,-7.324
27.832,32.715,19.043,20.996,-16.602
37.109,36.621,37.598,20.508,31.25
50.293,46.875,47.363,34.668,56.152
41.016,43.457,23.926,38.574,-2.93
37.109,43.945,-11.23,36.133,-44.922
33.691,51.27,-15.137,24.414,-10.742
40.039,55.664,19.043,12.695,3.906
50.293,55.176,47.363,17.09,-5.859
41.992,54.199,36.621,24.902,-16.113
33.203,52.246,15.137,24.414,-25.391
21.973,45.898,21.484,14.648,30.273
29.785,47.852,29.297,9.277,45.41
49.316,57.617,43.945,16.602,14.16
47.363,45.898,41.504,23.438,35.156
33.203,36.133,21.484,20.996,39.062
19.531,40.527,17.09,10.254,72.754
25.879,43.945,24.902,8.301,78.125
40.039,46.387,49.805,20.508,64.941
38.086,47.363,51.758,28.32,32.715
35.156,44.922,17.578,28.809,-20.02
28.32,44.434,15.625,20.996,6.836
27.344,37.109,38.574,14.648,52.734
46.387,33.691,46.387,19.531,32.227
45.898,41.992,55.664,25.879,-1.953
32.227,39.062,46.387,25.391,22.461
28.809,39.062,31.25,18.066,27.832
29.297,52.246,18.066,15.137,10.742
46.387,53.223,28.32,26.855,39.551
60.059,45.898,55.664,37.598,26.367
51.758,42.48,48.828,27.832,34.18
42.969,29.785,37.598,20.02,28.32
42.48,31.738,38.086,18.066,39.551
57.617,42.969,32.715,20.508,53.223
62.5,40.039,50.781,28.809,52.246
53.223,37.109,28.809,36.621,51.758
48.34,38.574,-1.953,30.762,-35.645
38.574,37.598,17.09,19.043,-43.457
48.34,29.785,27.832,27.344,-29.297
60.547,39.062,48.828,40.527,-12.695
49.316,42.969,28.809,53.223,21.484
41.504,32.227,11.23,45.41,32.715
38.086,31.25,26.855,26.367,45.41
46.875,43.945,27.344,29.785,4.395
60.059,50.293,57.617,47.852,22.949
51.758,44.434,55.664,49.805,35.645
39.062,45.898,28.32,39.551,2.93
27.832,46.875,25.879,36.621,13.184
29.297,40.039,31.25,33.203,25.391
42.48,34.18,48.34,37.598,-46.387
39.062,34.18,46.387,43.945,-44.434
26.855,33.691,28.809,36.621,26.367
19.043,26.367,12.695,24.902,14.648
30.762,31.25,32.715,24.902,41.504
46.387,25.879,66.406,38.574,31.25
48.34,15.625,50.293,52.734,-12.207
35.156,33.691,22.949,50.293,-10.254
22.949,36.621,12.695,36.133,51.758
35.156,36.133,13.672,40.527,45.898
54.199,38.086,44.922,47.852,-14.648
54.688,27.344,55.176,51.27,5.371
41.016,26.367,15.625,47.852,16.602
26.855,41.504,12.695,30.762,61.035
40.039,49.316,36.621,29.297,102.539
61.523,42.48,32.715,37.109,26.367
51.27,53.223,48.828,41.504,37.598
38.086,53.223,22.949,35.645,76.66
28.809,39.551,2.441,11.719,16.113
26.367,37.109,26.367,11.23,35.645
43.457,33.203,40.039,30.273,56.641
42.48,32.227,47.852,44.922,6.836
27.344,25.391,23.926,49.316,-21.973
19.531,20.996,5.371,40.039,11.719
26.855,23.926,15.625,38.574,-5.859
50.781,11.23,50.293,51.27,4.883
41.016,25.391,69.824,38.086,79.102
11.719,42.48,36.621,19.531,88.867
16.602,35.645,11.719,25.391,33.203
26.855,39.062,19.531,27.832,56.641
43.457,36.133,24.414,33.691,69.824
62.988,26.855,38.574,47.363,35.645
60.059,29.785,26.367,53.711,49.805
51.27,32.227,12.207,46.387,41.504
53.223,26.855,15.137,41.504,43.457
73.242,38.086,12.695,42.48,-2.93
89.844,44.434,30.762,49.316,-33.691
80.566,36.621,38.086,57.129,-11.719
70.312,36.133,25.879,64.453,26.367
69.824,31.738,24.902,64.941,5.371
87.891,34.18,41.016,67.871,42.48
95.703,42.969,70.312,71.777,69.824
80.566,41.016,72.266,66.406,102.539
73.73,35.156,37.598,52.246,100.586
71.777,35.645,43.945,53.711,45.41
83.984,33.203,67.383,63.965,73.73
91.309,31.25,77.148,61.523,36.133
82.031,34.18,76.66,63.477,-21.973
73.73,33.203,52.246,64.453,-39.551
56.641,36.133,32.715,53.711,-83.984
63.965,45.898,33.691,43.457,-20.508
88.867,46.387,47.852,58.594,51.27
83.496,35.645,59.57,71.289,-0.977
69.824,29.297,47.852,60.547,34.18
54.688,27.832,46.387,46.875,18.066
53.223,25.879,75.195,41.992,-22.949
71.289,28.809,94.727,51.758,38.086
71.289,35.156,83.496,62.012,55.664
54.199,33.203,60.059,63.965,36.621
41.992,29.297,53.223,56.152,31.738
49.316,29.297,56.641,53.711,83.984
64.941,25.391,72.266,58.105,93.262
66.895,29.297,77.637,64.941,97.656
52.246,29.297,39.551,62.012,80.566
41.504,24.902,27.832,46.387,78.613
44.434,26.367,58.594,41.504,37.598
59.57,27.832,74.219,49.805,-10.742
69.824,27.832,88.867,62.5,26.367
61.035,25.879,81.055,65.918,38.086
45.41,24.414,59.57,52.734,-1.953
41.504,27.832,56.641,38.574,36.133
56.641,33.691,66.895,48.828,83.496
63.477,36.621,73.242,64.453,16.113
48.828,35.156,57.129,63.477,-11.23
40.527,35.645,38.574,53.223,4.395
44.434,41.992,25.391,44.922,26.855
54.688,41.992,42.48,42.969,76.66
63.477,43.457,80.566,42.969,81.055
58.594,47.363,59.57,47.363,21.484
43.945,41.016,20.508,41.016,9.277
41.992,45.41,30.273,30.762,59.082
60.547,51.758,35.156,35.645,46.875
74.219,55.664,48.828,43.945,34.18
64.453,56.152,41.016,47.852,56.152
44.922,46.387,15.625,41.992,71.289
32.227,41.016,5.859,20.02,60.059
50.293,45.41,-3.418,9.277,41.504
69.336,43.945,2.441,25.879,43.457
51.27,40.527,3.418,36.133,21.484
38.086,43.457,-29.297,25.879,44.922
31.25,46.387,-28.809,14.16,42.969
37.109,52.734,11.719,19.531,22.461
49.316,55.664,46.387,27.344,64.453
39.062,56.152,46.387,28.809,89.355
32.227,52.246,16.113,24.902,55.664
26.855,48.828,7.324,20.02,0.977
32.227,48.828,20.508,22.461,56.152
55.176,41.504,29.297,40.527,6.836
55.176,38.086,25.391,51.27,5.859
41.016,45.898,14.16,49.316,104.98
32.227,51.27,-3.906,41.992,60.547
36.133,50.781,3.418,35.156,-30.273
50.293,49.805,31.738,37.109,-41.504
46.387,43.945,38.574,44.434,0
40.039,42.48,13.184,41.016,25.391
36.133,46.875,-1.953,27.832,40.527
39.551,45.41,7.324,28.32,19.531
52.734,49.316,42.969,32.715,51.27
56.152,54.688,56.152,40.039,68.359
72.754,47.852,14.648,71.777,-15.625
63.965,44.922,14.648,60.547,-11.719
17.578,45.898,39.551,6.836,25.391
12.207,33.691,45.898,-9.277,13.672
15.625,36.133,66.406,-7.324,30.273
-9.766,46.387,21.973,-16.113,66.895
-33.691,43.945,-28.809,-38.574,52.734
-44.922,35.645,16.602,-61.523,15.137
-41.016,39.062,54.199,-60.059,27.832
-44.922,65.918,62.988,-51.758,45.41
-49.316,72.266,45.898,-50.781,-50.781
-54.688,61.035,26.855,-58.594,-100.098
-63.965,52.734,35.156,-70.312,13.672
-48.828,49.805,37.109,-65.43,72.266
-32.715,48.34,45.41,-45.898,1.953
-39.551,44.922,50.781,-32.715,28.809
-36.621,44.922,21.973,-35.156,65.918
-32.715,51.27,26.855,-36.621,96.191
-20.996,52.246,44.922,-27.344,62.988
0.488,46.875,54.688,-13.184,3.906
-2.93,44.922,45.898,-1.465,12.207
-13.184,42.48,20.508,-1.953,50.293
-16.602,45.898,16.602,-5.371,71.777
-4.883,50.293,29.785,-3.906,65.918
12.695,53.223,47.852,1.465,53.223
8.789,57.129,45.41,8.789,11.719
-2.441,51.27,22.949,11.23,-4.395
-1.953,50.293,12.695,4.883,11.719
9.766,49.805,26.367,1.953,9.766
26.367,43.457,62.988,11.23,87.891
22.949,39.062,70.312,19.531,79.102
14.16,39.551,32.227,20.02,-12.695
4.395,42.48,18.555,11.719,-42.969
16.113,42.48,41.016,7.324,-5.371
42.48,45.41,53.223,11.719,32.715
36.133,51.758,53.223,23.438,70.801
29.297,45.898,45.898,29.297,60.059
22.949,37.109,28.809,20.996,31.738
27.832,35.645,26.367,19.043,52.246
43.457,39.551,50.293,31.25,0.977
40.039,43.457,71.289,35.645,2.441
33.203,42.48,40.039,30.273,81.543
22.949,35.645,7.324,16.113,79.102
22.461,37.109,39.551,11.719,36.133
43.457,44.434,54.199,25.879,47.852
48.34,43.457,60.547,30.762,34.668
38.574,41.504,60.547,34.18,41.992
28.809,36.133,32.715,25.879,55.664
35.156,33.691,18.066,10.254,12.207
52.246,37.109,37.598,11.719,-7.324
49.805,43.945,51.758,18.066,-34.668
37.109,41.016,36.621,25.879,-32.715
24.902,36.621,32.227,19.531,-9.766
20.508,38.574,40.039,4.883,48.34
33.691,40.039,46.875,9.277,49.316
45.41,47.363,64.453,24.414,47.852
36.621,40.527,44.922,31.738,30.273
22.461,33.691,18.555,24.902,24.902
19.043,37.598,22.949,15.137,43.457
29.297,41.504,39.551,21.484,71.777
37.598,43.945,64.453,34.668,69.824
27.832,43.457,47.363,39.551,13.672
27.832,43.457,17.578,41.504,20.02
28.32,34.18,10.254,35.645,30.273
21.484,35.645,21.973,19.531,44.922
21.484,39.062,38.574,12.207,30.273
18.066,32.715,37.109,23.438,67.871
7.812,27.832,-3.418,24.414,62.012
-0.977,28.32,0,5.859,36.621
12.207,27.832,49.805,2.93,28.32
31.25,29.297,73.242,15.137,-15.625
22.949,36.621,77.637,19.043,-3.906
15.625,42.48,57.617,20.02,24.902
10.742,39.551,40.039,17.578,5.371
25.879,36.133,26.855,13.672,-2.93
51.27,44.434,41.016,31.738,-2.441
41.016,45.41,65.918,48.34,-39.551
31.25,40.527,38.086,37.109,15.625
26.367,32.227,17.09,28.809,32.715
25.391,32.227,52.246,30.762,32.715
42.969,41.016,78.125,26.367,60.547
48.34,41.504,74.219,38.086,25.391
32.227,32.227,47.363,36.621,29.297
18.066,31.738,28.809,20.996,38.086
26.367,36.133,21.484,19.531,29.297
46.875,43.945,35.156,28.809,5.371
45.898,41.992,54.688,33.691,19.043
27.344,34.668,44.434,29.297,40.039
21.973,32.715,19.043,19.531,18.555
23.438,33.203,24.902,11.23,18.555
42.969,36.133,43.457,18.066,45.41
50.781,38.086,51.27,30.762,34.18
39.551,31.738,22.949,27.832,-2.441
27.344,35.156,5.859,23.438,-11.23
21.484,47.852,13.184,20.996,9.766
39.062,48.34,32.715,18.555,35.645
45.898,37.598,59.57,26.367,39.551
31.738,33.691,45.41,27.832,55.176
22.461,43.457,10.742,23.926,6.348
24.902,38.086,16.113,23.926,-29.297
44.922,25.391,41.992,23.926,-56.641
60.547,34.668,63.965,35.645,8.301
47.363,47.363,55.176,38.574,61.035
32.227,41.504,13.672,27.344,5.371
26.855,35.645,15.137,17.09,47.852
34.668,41.016,44.922,16.602,66.406
45.898,41.016,59.57,31.25,-7.812
46.875,38.574,54.688,36.133,25.391
41.992,40.039,29.785,27.832,27.832
27.832,51.27,13.672,19.531,-23.438
38.086,52.246,9.766,24.414,-5.371
51.27,49.316,30.273,33.691,-8.789
43.945,51.758,48.34,32.715,-9.766
33.203,44.434,28.32,20.996,-18.066
21.484,44.434,12.695,4.883,15.625
42.969,43.945,12.695,15.625,19.043
62.012,30.273,20.02,30.762,-21.484
46.387,51.758,30.273,26.367,-2.441
33.203,65.43,1.953,20.996,40.527
23.926,56.152,-20.508,11.23,29.297
30.762,52.246,-1.465,10.254,55.176
52.246,47.363,18.555,27.344,78.125
48.34,45.41,28.809,38.086,63.477
37.598,41.016,-3.418,34.18,58.594
32.227,44.922,-6.348,22.461,73.242
38.086,48.828,27.344,19.043,66.895
62.012,45.898,31.738,24.902,32.227
55.176,45.898,26.855,28.32,14.16
34.668,39.062,22.949,20.996,14.648
28.809,33.203,26.855,7.812,71.777
28.809,34.18,30.762,2.441,90.82
44.922,34.668,32.227,12.207,73.73
46.387,31.25,34.668,20.996,58.105
30.762,29.297,13.184,20.508,71.777
23.926,25.879,-21.973,13.184,42.969
23.438,35.156,-23.926,0.488,-12.207
41.504,41.504,9.766,9.766,35.645
50.781,36.621,34.668,28.32,78.613
35.156,35.645,7.812,27.344,64.453
22.949,35.156,-21.973,20.508,101.074
29.785,42.48,-29.785,14.648,51.27
