TP9,AF7,AF8,TP10,Right AUX
35.645,30.273,38.086,40.527,76.66
36.133,34.18,31.25,39.551,12.695
16.602,29.297,35.645,18.555,-41.016
19.531,24.414,38.086,13.184,-23.438
37.598,31.738,30.762,24.414,-33.691
31.738,33.691,27.832,26.367,-29.785
29.785,27.344,17.09,34.668,48.828
28.32,29.785,3.906,37.109,22.461
31.25,30.273,2.441,41.992,17.578
35.156,22.949,7.812,44.922,37.109
34.18,25.391,4.395,39.551,94.238
26.855,30.273,0,39.062,72.266
22.461,29.785,-2.93,36.621,37.109
33.203,26.855,-7.812,27.344,16.602
37.109,20.508,0.977,35.645,31.738
22.461,19.043,-4.395,41.504,62.988
14.648,21.484,-13.672,24.414,46.387
19.043,22.949,-13.672,24.414,39.062
23.926,23.926,-11.23,28.809,48.828
30.762,22.461,-6.348,25.391,16.602
32.227,24.902,-3.418,25.879,-38.574
15.625,27.344,6.836,30.273,28.809
3.418,28.32,12.207,21.973,44.434
8.789,24.902,5.859,14.16,20.508
28.32,24.902,4.883,21.973,45.898
26.367,26.367,7.812,26.855,36.621
14.16,28.32,4.883,28.809,21.484
19.043,29.785,0.488,36.621,4.883
19.043,29.297,0.977,27.344,-20.02
29.785,29.297,12.207,26.367,-6.348
24.902,31.738,11.719,30.273,5.859
9.277,32.227,4.883,17.578,19.043
17.578,33.691,9.277,20.02,36.621
18.555,40.039,1.465,21.484,33.203
17.09,35.645,5.859,16.602,1.465
24.902,38.086,5.371,20.02,28.32
46.875,38.086,-0.488,37.109,67.871
20.02,37.598,-2.441,18.555,72.754
22.949,37.598,-6.348,24.414,44.922
58.105,36.133,2.93,41.016,25.391
41.504,36.133,10.254,30.762,45.41
36.133,35.156,4.883,26.855,31.738
14.16,34.18,3.906,19.043,11.719
1.953,32.227,5.859,12.695,-2.441
25.391,33.691,0.488,10.254,8.789
45.898,35.156,-1.953,28.809,-4.883
32.715,34.668,0.977,37.109,13.672
13.184,37.109,-0.977,18.066,57.617
22.949,37.598,-4.883,15.625,50.781
34.18,29.785,1.953,8.301,60.547
32.715,36.621,1.465,16.113,17.578
32.227,38.086,-3.418,21.973,-1.953
31.25,36.621,6.836,15.625,52.246
36.621,38.086,16.113,20.02,1.465
44.922,36.133,20.996,20.996,-29.785
41.016,37.598,20.508,20.996,22.949
45.41,37.109,3.906,29.297,45.41
34.18,34.668,2.441,29.297,52.734
2.93,32.715,6.836,19.043,-45.41
21.973,35.645,7.324,23.926,-17.09
47.852,37.109,16.113,30.273,25.879
28.809,26.855,15.625,27.344,16.602
16.113,26.367,10.742,28.809,41.016
20.508,33.203,9.277,31.25,18.066
19.531,33.203,8.789,29.297,-20.996
21.973,35.156,7.324,28.809,-9.277
29.297,36.133,5.859,21.484,87.891
22.949,30.762,7.324,17.578,61.035
16.602,29.785,13.184,19.043,-22.461
3.906,30.762,14.648,9.277,7.812
28.32,33.203,6.348,26.367,20.508
42.969,34.668,0.488,21.484,-56.641
21.484,37.109,12.207,-6.348,-47.363
21.484,34.668,23.438,2.93,-1.465
23.438,25.879,24.902,24.414,18.066
33.203,23.438,27.832,27.832,74.219
24.414,30.273,19.531,5.371,70.801
18.066,40.039,14.648,7.812,53.223
2.441,41.016,24.414,2.93,32.715
-9.766,37.598,18.555,-2.441,3.906
11.719,32.715,15.625,-3.418,8.789
15.137,35.645,13.184,-11.23,12.207
2.93,35.156,13.184,-4.395,33.203
-1.953,34.18,14.16,-15.137,39.062
-12.207,36.133,13.184,-20.996,20.02
6.836,32.227,20.02,-1.465,35.156
20.508,24.414,22.949,3.906,0
-14.648,20.996,21.973,-16.113,-7.324
-9.766,22.461,21.973,-9.277,1.953
2.93,17.578,21.484,7.324,31.25
1.953,25.391,17.09,7.812,65.43
7.324,27.832,19.531,-3.906,-17.09
21.484,24.414,17.09,15.137,-19.043
25.879,20.02,25.879,21.484,35.645
6.348,17.09,33.691,2.93,5.859
12.695,23.926,33.203,12.695,5.371
44.922,31.738,20.996,30.762,33.203
24.902,31.25,7.324,19.531,28.32
6.348,26.855,10.254,13.184,23.926
9.277,24.414,16.602,15.625,51.27
8.789,28.32,25.879,6.836,70.801
20.508,26.367,29.297,10.742,28.32
24.902,32.227,22.949,9.766,23.438
27.344,34.18,26.855,7.324,56.152
23.438,21.973,26.367,15.625,76.172
9.277,23.926,20.508,3.418,89.355
20.996,28.32,25.879,0.977,63.965
32.227,23.438,21.973,22.461,45.898
17.578,23.926,13.184,24.902,5.859
9.277,22.461,12.207,12.695,18.066
11.23,18.066,6.836,6.836,85.938
25.879,20.508,5.859,14.16,85.938
26.367,25.391,5.371,10.254,31.738
7.324,24.414,7.324,-1.465,8.789
2.441,23.438,13.672,-2.93,21.484
1.953,27.344,5.371,0.488,52.734
10.742,28.809,6.348,11.719,36.133
22.461,29.785,18.555,23.438,38.086
20.996,28.32,16.113,17.09,43.457
1.953,21.484,13.184,8.301,47.363
4.395,27.344,5.859,14.648,40.527
23.926,33.691,4.883,11.23,15.625
22.949,31.738,9.766,9.277,-3.906
16.602,30.762,6.836,10.254,2.441
15.137,32.715,4.395,8.301,23.438
3.418,34.668,4.883,6.836,-7.324
11.23,31.738,6.836,18.555,35.156
28.32,34.18,6.836,20.996,89.844
17.09,22.949,7.324,20.996,21.973
4.395,15.625,21.973,29.785,-12.695
8.301,30.762,20.02,23.926,12.207
11.23,33.691,1.953,1.465,-25.391
25.391,31.738,4.395,-3.418,22.461
23.438,38.574,-1.465,-4.395,92.773
12.695,43.457,-2.93,-9.766,17.09
18.555,44.434,-2.441,-11.23,2.93
22.461,39.551,-13.184,-11.719,-5.859
33.203,45.898,-18.066,6.348,-27.832
33.203,50.781,-19.531,11.23,15.625
36.133,54.688,-24.414,6.836,23.926
28.809,53.223,-28.32,15.625,40.527
30.762,48.34,-24.902,17.578,70.801
41.992,47.363,-11.719,9.277,81.543
33.691,44.922,-14.16,13.184,65.918
31.738,45.898,-20.996,17.578,94.727
24.414,43.457,-18.555,6.348,80.566
22.949,39.062,-14.648,-5.859,38.086
50.293,41.992,-2.93,15.137,31.25
49.316,40.527,-6.348,26.367,-27.344
24.902,38.086,-14.648,13.184,33.203
22.461,39.062,-15.137,12.695,93.75
22.949,36.621,-14.16,20.508,17.578
25.391,33.691,-8.789,22.949,-8.789
24.414,32.227,-2.441,20.02,18.555
15.625,31.25,-0.977,15.625,51.758
20.02,31.738,2.93,20.508,43.945
18.555,32.227,1.953,16.113,46.875
31.25,33.203,3.418,12.695,11.719
41.016,33.203,-0.977,21.973,29.785
31.738,27.344,0,20.508,50.293
31.25,24.414,6.348,16.113,72.266
22.949,23.438,3.418,12.695,63.965
30.762,23.926,7.812,16.113,46.875
41.992,20.508,2.93,22.461,74.219
36.621,13.672,-3.906,17.09,52.246
34.668,15.625,-3.906,13.184,-1.953
26.855,13.672,-12.207,9.277,-35.645
37.598,10.742,-8.301,4.883,17.09
51.27,14.16,1.953,22.461,28.32
41.016,21.484,0.977,22.949,72.266
30.762,20.996,0,14.648,60.059
22.949,15.137,2.441,27.832,-0.977
23.926,15.625,-1.953,33.203,22.461
38.574,16.113,-4.883,24.902,13.184
35.156,15.137,-7.324,14.648,10.254
21.484,17.578,-2.441,3.418,22.949
17.09,18.066,7.812,4.395,-27.344
20.996,20.02,11.23,14.16,11.719
33.691,25.879,12.207,9.766,22.461
33.203,24.902,22.949,29.297,-14.648
26.367,21.973,24.902,29.785,-14.648
21.973,20.508,20.02,0.488,12.695
20.02,21.973,27.344,-2.93,41.504
24.902,22.461,40.527,4.395,48.828
34.18,22.461,41.992,20.508,42.969
27.344,26.855,42.969,21.484,72.266
13.184,29.785,41.504,8.789,76.66
17.578,27.344,31.738,11.23,60.547
38.086,25.391,42.969,8.789,43.457
37.109,21.973,46.875,0.977,5.371
26.855,24.414,40.039,24.414,19.531
20.02,35.156,47.852,20.508,55.664
17.578,35.156,52.734,3.906,25.879
32.227,34.668,61.035,4.883,-13.184
20.508,34.668,53.711,7.324,-23.926
5.859,33.203,55.176,9.766,-7.324
-0.977,32.227,62.988,-0.488,35.645
1.953,31.738,52.734,0.977,50.781
21.484,35.156,50.293,16.113,16.113
34.18,35.645,50.293,26.367,-29.785
25.879,34.18,49.316,20.996,0
20.508,34.18,44.434,29.297,29.297
21.484,37.109,45.898,32.227,25.879
30.762,36.133,47.852,21.484,64.453
39.062,37.109,41.016,20.996,70.312
33.691,40.527,37.598,31.25,42.969
21.973,40.039,40.039,30.273,45.41
15.625,37.109,40.527,38.086,70.801
31.25,35.645,41.504,37.598,28.32
46.387,35.156,40.527,30.273,-20.996
36.133,35.645,41.016,34.668,54.199
30.273,35.645,37.109,36.133,78.613
9.766,32.227,24.414,32.715,12.207
21.973,34.668,32.715,24.414,-35.645
42.48,35.645,43.945,29.785,31.738
32.227,33.203,30.762,34.18,48.828
21.973,33.203,24.414,23.926,9.277
11.23,31.25,24.902,21.973,46.387
18.066,27.832,22.949,24.414,14.648
43.457,35.645,23.926,32.227,12.695
39.551,41.016,25.391,40.039,32.715
14.648,36.621,16.602,26.367,52.246
4.883,34.18,13.672,22.949,-0.977
17.09,30.273,25.391,37.598,10.742
40.527,27.832,33.691,40.527,85.449
35.645,33.203,28.32,26.855,92.773
25.391,33.691,18.066,27.344,30.762
26.367,33.691,6.348,27.344,-10.742
18.066,37.109,8.301,20.996,13.184
26.367,33.203,21.973,24.414,29.297
35.156,33.203,20.508,18.555,24.902
31.738,35.156,21.484,17.09,17.578
21.484,32.715,23.926,25.879,20.996
10.254,34.668,19.043,20.508,23.438
28.32,35.156,25.391,14.16,66.895
37.109,33.203,32.227,16.602,72.754
23.438,38.086,32.227,20.02,-23.438
22.949,38.574,23.926,28.809,-94.727
26.367,41.016,18.555,24.902,16.602
31.738,41.992,17.09,17.09,38.574
40.039,39.062,8.789,32.227,9.766
36.133,38.086,4.883,21.973,24.414
20.508,36.133,5.371,5.371,32.715
18.066,35.156,4.883,16.113,54.688
36.621,35.156,8.301,11.719,26.855
45.898,33.691,9.277,9.766,14.16
28.32,33.203,13.184,14.648,-23.926
19.531,34.18,23.438,21.484,-82.52
23.438,28.32,20.996,30.762,-91.309
31.738,30.762,21.484,31.25,-53.711
40.039,32.715,29.785,26.367,-41.016
41.992,31.738,23.926,14.648,15.137
32.227,30.273,24.414,14.648,1.953
16.602,27.832,27.832,7.812,-51.27
25.391,29.297,23.438,11.23,-32.715
33.691,29.297,18.066,12.207,-9.277
33.691,31.25,13.184,19.043,-20.996
23.438,33.203,19.043,24.414,-0.488
11.23,33.691,23.926,11.23,71.777
27.344,38.086,26.855,20.508,73.242
47.363,43.945,37.598,27.344,88.867
30.273,41.992,27.344,20.02,80.078
17.09,39.062,21.973,12.695,50.781
11.719,33.203,27.344,12.207,37.109
22.461,31.738,21.973,9.277,37.598
44.434,32.715,26.367,18.066,59.57
31.25,29.297,26.367,26.367,80.566
22.949,33.691,21.484,17.578,47.852
28.809,33.691,21.973,17.578,0
24.414,35.156,16.602,18.066,39.062
27.344,35.156,24.414,17.09,57.129
27.832,32.715,14.648,27.344,46.875
21.973,35.645,2.441,26.367,71.777
22.949,32.227,6.348,13.672,68.848
17.578,29.785,-8.789,1.953,33.691
13.672,30.273,-10.742,3.418,46.875
27.832,29.297,-3.906,15.625,92.285
17.578,27.344,0.488,10.254,57.617
4.395,31.25,-1.953,13.184,26.367
11.719,38.574,-2.441,16.113,19.043
21.484,40.527,4.395,8.301,22.461
34.668,31.738,7.324,14.648,20.508
27.344,26.367,7.324,23.926,-2.93
26.855,32.227,7.324,26.855,19.043
15.625,34.668,8.789,14.648,82.031
8.789,34.18,10.254,-4.883,62.012
9.277,36.133,3.906,-10.742,32.715
4.395,32.715,3.906,-5.371,77.637
8.789,34.18,4.883,0.977,108.887
-6.836,38.086,-4.395,-6.836,92.773
10.254,34.18,0.488,-2.93,-10.254
11.23,33.691,14.16,-8.301,-36.133
18.555,33.691,12.207,2.93,62.5
12.207,35.156,3.418,3.906,68.848
-12.695,32.227,-5.371,-16.113,44.434
11.23,28.32,-8.301,1.465,42.48
37.109,35.156,-7.812,14.648,80.566
26.367,33.691,-13.184,2.93,72.266
20.02,30.273,0.488,5.371,21.973
13.672,30.762,6.348,6.836,5.859
6.836,30.762,-3.418,10.742,-20.02
30.762,27.832,-6.348,28.32,-15.625
23.438,28.809,-6.836,21.484,-9.766
5.371,30.762,4.395,13.184,-6.348
4.883,28.809,5.371,19.043,-28.32
19.531,29.297,8.301,20.02,36.133
37.109,28.809,20.02,19.043,59.082
25.391,31.738,15.137,17.578,18.066
22.949,31.738,18.066,18.066,43.457
36.133,30.762,20.508,28.32,15.137
24.902,32.715,17.578,19.043,-3.418
24.414,29.785,26.367,17.09,77.148
34.18,28.32,17.578,33.203,67.871
34.18,29.785,7.812,34.18,-33.691
27.344,28.809,12.695,35.645,-12.695
26.855,27.832,7.812,28.32,37.109
39.551,30.273,1.465,34.668,41.016
47.363,36.621,8.789,43.457,56.641
23.438,37.109,20.02,17.578,43.457
11.719,31.738,18.066,20.02,44.434
23.926,29.785,13.672,27.832,63.477
31.25,32.715,11.719,20.02,5.371
41.016,30.762,12.695,30.273,15.137
31.25,27.344,13.184,22.461,14.16
19.531,29.297,18.555,18.555,16.602
34.668,33.203,20.996,36.621,60.059
37.598,32.715,33.691,27.832,74.219
37.598,27.832,33.203,24.414,25.879
27.832,23.926,28.32,23.438,-23.926
15.625,25.879,24.414,20.02,-34.668
19.043,31.25,28.32,29.785,18.066
25.879,31.738,39.551,27.832,71.777
25.879,27.832,34.668,20.996,14.16
23.926,28.809,25.391,27.344,-5.859
15.137,30.273,22.949,24.414,40.039
-2.441,26.855,22.949,12.207,75.195
-0.488,26.367,17.578,6.348,49.805
15.625,25.879,12.207,10.742,-9.766
20.02,29.297,14.648,21.973,64.453
18.066,33.203,21.484,26.367,87.402
20.508,32.715,25.879,19.531,66.406
18.066,31.738,30.273,6.348,61.523
29.297,32.715,32.715,15.137,0
39.062,36.621,29.297,26.367,3.906
22.949,36.133,23.438,14.16,23.438
12.207,33.691,7.812,22.461,-20.02
21.973,32.715,2.93,33.691,5.371
37.598,32.227,15.137,20.996,79.102
39.062,32.715,15.137,28.809,21.973
28.809,31.738,12.207,25.879,24.414
26.855,28.809,11.719,20.508,55.176
23.926,32.227,5.859,22.949,25.879
14.648,33.203,11.719,16.113,32.715
11.719,28.32,16.113,21.484,58.594
9.766,29.785,16.113,21.973,81.055
4.883,31.738,20.02,17.578,23.926
12.695,32.715,21.484,17.09,-29.785
26.855,31.738,21.484,10.254,-15.625
29.297,32.227,16.113,11.23,25.391
26.855,30.762,15.625,23.438,5.371
25.391,32.715,20.996,20.508,-23.438
25.391,34.18,26.855,13.672,38.574
29.785,27.344,43.945,15.625,91.309
22.461,23.926,56.152,6.836,50.781
8.789,24.414,54.688,6.836,-13.672
9.766,26.367,56.641,13.672,17.578
17.09,28.32,60.059,20.508,12.695
28.809,29.785,70.312,11.719,32.715
36.133,26.855,69.336,24.902,61.523
28.809,26.855,60.059,18.555,33.203
12.695,30.762,61.035,-2.93,33.203
10.254,28.32,59.082,5.371,23.926
22.461,26.855,58.594,19.043,44.922
29.785,26.367,51.27,26.367,38.574
23.926,23.926,40.527,13.184,26.855
30.273,22.461,31.25,15.137,57.129
19.043,22.461,24.902,20.508,49.316
23.438,24.414,25.879,21.973,46.875
41.504,26.367,33.691,27.832,13.672
33.203,29.297,41.504,25.391,28.809
24.902,29.297,40.039,16.113,104.004
15.625,23.926,35.645,19.043,65.918
16.602,25.879,31.738,15.137,50.293
34.668,26.855,27.344,6.836,73.242
41.992,24.902,15.137,22.461,40.527
29.785,25.879,14.648,20.508,15.137
21.973,27.344,19.043,19.043,45.898
22.949,28.809,10.742,14.648,33.691
30.273,27.832,9.277,1.953,25.879
31.25,31.25,3.418,14.648,-11.719
27.832,33.691,5.371,20.02,21.973
23.438,35.645,8.301,21.973,69.824
20.02,29.297,4.395,21.973,-8.301
30.273,21.973,10.254,30.762,20.02
38.574,24.902,4.395,39.062,44.922
32.227,23.926,2.441,34.668,16.113
21.484,22.461,6.836,29.785,20.996
20.508,26.367,-4.395,27.344,32.227
32.715,28.809,-3.418,24.414,25.879
42.969,25.391,13.672,35.156,73.242
35.156,25.391,17.09,38.574,49.316
27.832,28.32,17.09,28.32,-20.996
31.738,30.273,17.09,18.555,16.113
35.156,27.344,23.926,18.066,7.324
36.621,24.902,24.414,26.855,-8.789
30.273,22.461,17.578,23.926,14.648
17.09,17.09,23.926,26.367,-27.344
7.812,20.02,22.949,18.066,15.137
17.578,24.902,16.113,15.625,38.574
36.133,27.832,6.348,26.367,27.832
25.391,27.344,2.93,31.25,33.203
11.719,26.855,7.812,24.414,86.426
3.418,22.461,9.766,7.812,122.07
24.414,20.996,17.578,17.09,52.734
37.109,23.438,25.879,31.25,-11.719
9.766,28.32,20.996,13.184,17.09
10.254,32.227,16.602,16.602,62.988
11.719,28.32,11.23,30.273,28.809
18.555,26.855,3.906,22.461,40.527
26.367,24.902,2.93,30.762,-2.441
19.531,24.414,3.906,28.809,-20.996
15.625,30.273,2.93,31.25,9.277
9.766,32.715,-1.465,32.715,-21.973
13.672,28.32,7.812,23.438,19.531
41.016,29.785,22.461,30.273,8.301
39.062,31.25,19.531,45.898,27.344
25.879,28.809,11.23,43.945,40.527
21.484,34.18,10.742,32.227,18.066
10.742,39.062,8.301,17.09,62.5
28.32,35.645,5.371,25.879,53.223
32.227,35.645,11.719,24.902,34.668
17.09,36.133,16.602,9.277,36.621
17.09,33.691,12.695,28.32,7.812
21.484,31.25,5.859,38.574,-24.902
33.203,29.785,1.953,31.25,-4.395
52.246,33.203,-0.488,30.762,-22.461
32.715,30.762,-6.348,35.645,-16.602
17.09,28.809,-9.766,25.391,23.926
24.414,30.762,-4.395,20.996,49.805
44.434,29.785,5.859,29.785,35.156
58.594,28.809,9.277,38.086,9.766
35.156,28.32,17.09,45.41,51.27
8.789,32.227,16.602,44.434,51.758
4.883,32.715,12.695,24.902,0.488
31.738,33.203,19.043,32.227,28.32
51.758,31.738,13.672,63.965,13.184
81.055,26.855,6.836,59.57,-74.707
55.176,26.855,14.16,34.668,-16.113
-8.301,28.809,14.16,-2.93,47.852
15.137,36.621,17.09,-13.672,5.859
25.879,39.062,17.578,18.555,-9.277
14.648,39.062,16.113,20.508,-8.301
25.391,44.922,17.578,21.973,17.578
24.902,37.598,16.113,33.691,20.508
8.789,28.32,23.438,13.184,-5.859
15.137,23.438,28.32,10.254,20.508
21.484,21.484,32.227,7.324,67.383
2.93,23.438,32.227,6.836,78.613
-3.418,21.484,25.391,20.996,43.457
5.859,17.578,33.203,27.832,-15.137
9.766,16.602,35.645,29.785,54.199
8.301,14.648,28.809,42.48,82.52
-1.953,11.719,36.133,36.133,1.953
-8.789,12.695,35.645,22.461,8.789
-7.812,10.254,34.18,38.086,21.484
6.348,12.695,28.809,41.992,7.812
18.066,12.207,21.973,40.527,16.113
20.508,15.137,21.973,51.27,10.742
10.742,17.578,17.578,50.293,28.32
0.488,20.02,13.184,39.062,27.832
27.832,21.973,19.043,41.016,-6.836
37.598,21.484,25.391,37.109,0.488
19.531,21.484,29.785,34.18,3.906
16.113,19.531,23.438,35.156,1.953
6.836,21.973,16.113,34.668,-33.203
27.344,22.949,24.414,28.32,-3.906
35.156,17.578,22.949,13.672,59.57
27.832,16.113,10.254,25.879,6.348
31.25,22.949,5.859,26.855,35.156
3.418,27.344,9.766,7.812,48.828
11.23,27.832,23.438,13.184,20.996
46.875,24.414,27.344,36.621,21.484
23.438,23.438,19.531,40.039,42.48
5.371,26.855,16.113,30.273,49.316
15.625,29.785,17.09,30.762,46.387
29.785,30.273,28.809,34.18,83.008
42.969,31.738,21.973,30.273,60.547
36.133,29.785,10.254,24.902,-21.973
12.207,24.902,22.949,22.949,8.789
17.578,23.926,11.719,37.598,-2.93
54.199,26.855,9.766,35.645,-3.418
43.945,25.391,20.508,35.645,39.551
22.461,27.344,12.695,28.809,24.902
31.738,30.273,14.648,16.602,10.742
11.23,28.32,15.137,12.207,18.066
9.766,22.949,17.09,-0.977,53.223
31.25,25.391,9.766,2.441,98.145
18.555,26.367,2.93,2.441,54.688
16.602,28.809,3.906,-0.488,-16.602
19.531,34.18,5.859,6.836,12.207
21.484,29.785,11.719,8.789,43.457
29.297,25.391,15.625,15.137,8.301
23.438,22.949,13.672,19.043,2.93
3.418,21.973,3.906,-2.441,-7.812
-10.742,20.996,2.93,2.93,-51.27
12.207,23.926,11.23,5.371,18.555
10.254,26.855,17.09,-11.719,53.711
-3.418,24.414,10.254,-1.465,-26.367
18.066,18.066,11.23,6.348,15.137
5.371,16.113,0.977,-9.766,9.277
-0.977,19.043,0.488,-9.766,-14.16
22.461,20.02,6.348,3.418,3.418
22.949,20.996,3.418,8.789,-17.09
18.066,24.414,8.789,8.789,42.48
7.324,24.414,5.859,5.859,40.527
1.465,27.832,0.977,1.953,75.684
22.949,26.855,10.254,10.742,140.625
18.555,22.461,8.789,8.789,101.562
22.461,22.949,-3.418,12.695,28.809
17.578,26.367,-8.789,9.277,51.758
4.883,26.367,-16.602,-2.93,2.441
30.273,21.973,-8.301,12.207,-54.688
47.852,19.043,0.488,20.996,16.113
34.18,19.043,-4.883,7.812,10.254
24.414,24.902,-6.836,11.23,-39.062
14.648,27.832,-10.254,13.184,62.988
20.508,27.832,-10.254,5.371,69.824
34.18,26.855,-4.395,14.648,74.707
27.832,20.996,-5.859,24.414,77.637
12.695,21.973,-10.742,18.066,29.297
7.324,25.391,-14.648,24.902,-28.809
30.273,19.531,-0.977,25.879,-19.043
41.992,19.531,2.441,21.973,47.852
21.973,21.484,-0.488,22.461,-14.16
22.461,22.461,5.371,23.438,55.176
33.691,19.531,8.301,29.785,69.824
33.691,25.879,8.301,24.414,-37.109
31.738,28.809,1.953,19.043,-13.184
28.809,26.367,-0.977,28.809,14.648
21.484,29.785,-3.418,24.414,47.852
9.277,27.832,-10.742,13.184,10.254
1.953,23.926,-1.953,12.207,-8.301
14.648,14.648,8.301,11.23,41.504
20.508,17.578,2.93,20.02,53.223
18.066,27.832,-5.371,25.391,83.496
-2.441,33.691,-1.953,15.137,70.801
-7.812,37.109,2.441,7.812,83.496
22.461,34.668,5.859,15.137,61.523
33.691,31.25,8.789,22.949,12.207
11.23,32.227,18.066,2.93,39.551
-1.953,29.785,24.902,1.465,11.719
-12.207,31.738,21.973,-0.977,-27.344
20.996,39.551,25.879,19.043,26.855
41.016,39.551,23.438,37.598,56.641
14.648,35.645,18.555,31.738,-20.508
15.625,39.062,10.742,20.508,-23.438
11.719,36.133,8.301,11.719,31.738
32.227,38.086,6.348,23.438,126.953
40.039,42.48,4.395,28.32,105.957
13.184,39.062,5.371,25.391,12.207
14.648,35.156,1.465,21.973,-0.977
25.391,31.25,-0.977,12.695,19.043
28.809,32.227,3.906,9.766,2.441
33.203,33.203,0.488,20.996,10.742
19.531,32.715,-11.23,18.066,-2.93
18.066,29.785,-10.742,20.996,-9.277
12.207,20.996,0.488,19.531,13.184
25.879,25.879,-6.348,15.137,-20.02
34.18,27.344,-9.277,15.137,-33.691
7.324,23.926,0,16.113,7.324
20.02,30.762,-11.23,31.738,28.809
32.227,29.785,-13.672,33.691,39.551
20.508,29.785,-7.812,11.719,66.406
25.391,32.227,-6.348,10.742,32.227
26.855,26.367,-1.953,18.066,-1.465
14.16,30.762,11.719,9.277,4.883
10.254,34.668,9.766,12.695,32.715
16.113,24.414,-0.977,21.973,31.25
44.434,29.785,-6.836,25.391,20.508
31.25,26.855,4.395,17.09,29.297
6.836,19.531,-2.93,10.254,34.18
18.555,20.996,-35.156,16.113,51.27
13.672,19.531,-23.926,10.254,61.035
23.926,22.461,-6.348,15.137,12.207
33.691,21.973,-5.859,30.762,5.859
14.648,23.926,3.906,24.902,56.152
4.395,25.879,12.207,20.508,8.301
12.695,26.855,9.277,20.508,-9.766
19.531,27.344,0,16.602,64.453
14.16,26.367,-1.465,19.531,3.906
28.32,30.273,0,34.18,-14.16
15.137,22.461,-1.953,17.578,30.273
-7.324,13.672,6.836,-3.906,8.301
9.766,14.16,13.672,-4.395,15.625
23.926,17.09,15.625,12.695,7.812
12.207,20.508,25.391,21.973,-9.277
10.254,18.066,33.203,23.438,15.137
10.742,18.066,29.785,16.113,24.902
42.969,27.344,33.691,26.855,-2.93
48.34,29.297,37.598,31.25,27.344
26.855,27.832,40.527,18.555,60.059
21.484,27.832,45.41,15.625,40.039
10.742,20.02,42.969,10.254,-58.594
26.367,18.066,45.41,24.902,-69.824
47.363,23.926,52.734,33.691,25.391
30.762,22.461,49.316,22.461,16.113
10.254,21.484,47.363,21.484,42.48
9.766,26.855,40.039,16.113,37.109
25.879,30.762,38.574,21.484,19.531
45.41,31.25,32.227,26.855,34.668
33.203,31.738,16.113,10.254,20.508
13.672,26.855,17.09,21.484,29.297
13.672,24.902,20.508,45.41,68.359
26.367,28.32,23.926,41.016,77.637
48.828,32.715,29.785,26.855,8.301
37.109,33.203,41.016,27.344,6.348
28.32,34.668,47.852,33.203,68.359
27.344,37.109,36.621,26.367,70.312
42.969,41.504,29.785,25.391,65.918
52.246,40.527,32.715,41.992,65.43
32.227,39.062,34.18,45.41,33.691
33.203,42.48,30.273,41.016,73.242
22.461,41.016,24.902,17.09,80.566
22.949,40.039,23.438,14.16,42.969
25.879,36.133,27.832,20.996,26.855
30.762,37.598,31.25,34.18,81.543
22.461,35.156,31.25,47.363,73.242
8.301,26.855,34.18,37.109,-19.531
39.551,38.574,26.855,21.973,18.555
49.805,44.434,21.973,21.484,73.242
18.066,37.109,28.809,21.484,80.566
-0.977,26.367,40.039,19.531,117.188
6.836,19.043,46.875,41.504,83.008
8.301,27.344,33.203,28.32,38.086
37.598,39.062,21.484,27.832,32.715
52.246,39.062,15.625,25.879,-42.969
28.809,32.715,2.441,8.789,-37.109
14.16,27.832,-0.488,29.785,4.395
25.879,31.25,-5.859,22.949,-21.973
35.156,22.949,-1.465,34.18,9.766
21.973,16.602,9.766,46.875,51.27
21.973,27.832,5.371,11.23,32.227
42.969,34.668,-3.418,-2.93,15.137
33.691,28.32,-6.836,7.812,30.762
16.113,27.832,-2.93,26.367,43.457
16.602,31.738,-7.324,17.578,5.371
13.184,28.32,-3.418,11.23,5.371
20.996,24.414,12.207,37.598,60.547
15.137,18.555,18.066,30.273,3.418
23.438,19.043,18.066,3.418,-19.043
45.41,25.879,27.344,16.113,46.387
32.715,30.273,26.367,17.09,53.711
5.371,26.367,9.277,-10.742,52.734
-10.254,18.066,8.789,21.973,39.062
2.93,21.973,21.484,57.129,-30.762
17.578,24.414,31.25,-0.488,-9.277
6.836,23.926,28.809,-15.137,32.715
17.09,31.738,23.926,7.324,29.785
20.02,31.738,6.348,-17.09,32.715
24.902,23.926,7.324,1.465,46.387
36.133,21.973,11.23,19.531,55.176
35.645,30.273,5.371,-5.371,-2.441
25.391,34.668,10.254,-5.859,11.719
9.277,30.762,12.695,2.441,61.523
9.766,28.809,12.207,-0.977,67.871
6.836,25.879,16.602,-3.906,49.316
6.348,25.391,21.973,-0.488,96.191
32.715,30.762,22.461,14.648,47.363
38.086,31.738,23.926,17.09,-39.551
20.02,35.156,22.461,1.465,15.137
20.996,33.203,20.02,4.395,54.199
26.855,35.156,13.184,12.207,15.625
31.738,38.574,16.113,11.23,-49.805
30.762,35.156,22.461,12.207,-15.625
29.297,33.203,19.043,11.23,32.715
43.457,32.715,20.02,19.043,16.113
50.781,35.645,26.367,27.832,14.16
44.922,38.086,25.391,42.969,-24.414
41.992,39.551,22.461,40.039,30.762
40.527,41.992,25.391,10.254,56.152
41.016,40.039,30.273,19.531,-29.297
44.434,41.504,24.902,28.809,11.719
31.25,43.945,18.555,18.555,60.547
27.344,41.992,13.672,11.23,16.113
33.691,41.504,9.277,11.23,16.113
34.668,42.48,8.789,20.508,11.23
47.363,44.434,2.93,9.766,2.441
44.434,43.457,5.859,3.906,23.926
31.25,43.945,3.906,27.344,26.367
32.227,41.992,-2.93,20.02,1.953
37.109,36.133,2.441,1.465,8.789
51.27,35.645,-4.883,2.441,4.883
45.898,31.738,-1.465,13.184,51.758
23.926,31.738,6.348,16.602,101.562
5.859,38.086,4.883,-4.395,35.156
7.812,37.109,10.742,-2.93,19.531
30.762,35.156,3.418,4.395,78.125
29.297,32.715,-9.766,13.672,35.645
18.555,31.25,-14.648,8.301,-11.23
12.207,34.18,-19.531,-8.301,-21.484
19.043,34.18,-23.438,5.371,1.465
35.645,30.762,-23.438,15.625,64.941
26.367,30.273,-17.578,5.371,75.195
15.137,29.785,-13.184,0.977,32.715
14.16,32.715,-20.996,2.441,28.809
26.367,35.645,-11.23,11.719,-13.672
41.992,33.203,-2.441,19.043,-1.953
45.41,31.25,-4.395,24.414,26.367
45.41,32.227,-3.906,16.602,-6.348
20.996,28.32,-4.395,-0.488,-2.93
12.695,22.461,-1.465,-3.906,-31.25
34.18,21.973,-1.953,8.301,-27.832
37.598,27.344,-6.348,11.23,34.18
13.184,27.344,-7.324,8.301,34.18
-2.93,24.902,0,2.93,29.785
6.836,27.832,4.395,2.93,75.684
25.391,31.25,2.93,5.859,51.758
24.414,28.32,11.719,2.441,-3.418
9.277,22.949,23.438,0.977,11.23
8.301,30.273,25.391,-5.371,55.664
12.695,37.109,27.832,-0.488,62.5
20.02,30.762,35.645,4.883,3.906
23.926,26.855,41.992,8.301,-22.461
21.484,28.32,43.457,-1.465,10.742
11.23,28.32,42.48,1.465,40.527
2.93,25.391,39.551,10.254,25.391
12.207,25.879,39.062,-2.441,15.137
17.578,29.297,31.738,-4.883,53.223
6.348,28.809,27.832,-2.93,37.109
-1.953,28.809,28.809,-4.395,27.832
-3.418,32.227,21.973,-5.371,23.438
10.254,26.367,30.273,0,58.594
25.879,24.414,25.391,9.766,86.914
16.113,35.156,16.113,0.977,20.02
-5.371,36.133,29.297,-16.602,5.859
-9.277,29.785,21.973,-13.184,62.012
10.254,31.25,9.277,-1.465,27.344
23.438,34.668,10.254,1.465,-24.414
6.348,35.645,21.484,8.789,-12.695
-3.906,39.062,20.996,10.254,21.973
-3.418,43.457,5.371,-10.742,-9.277
2.93,36.621,3.418,-16.602,9.277
10.742,28.809,4.883,-10.254,15.625
-2.93,31.738,5.371,-10.742,-9.766
-14.16,38.086,11.23,-21.973,30.273
-17.578,38.086,16.113,-30.273,-0.488
-12.207,40.039,19.531,-29.297,17.578
-2.441,44.922,19.043,-23.926,56.641
-21.973,42.969,17.578,-26.367,60.059
-37.109,39.551,9.766,-34.668,78.613
-45.898,38.574,11.719,-43.457,32.715
-52.246,42.48,19.043,-58.594,40.527
-45.41,43.457,24.902,-62.5,6.348
-56.641,36.621,36.133,-67.383,-15.137
-66.406,36.133,40.527,-70.801,83.496
-74.707,33.203,36.621,-73.242,67.871
-73.242,28.32,38.574,-78.125,16.602
-60.547,28.809,35.156,-77.148,57.129
-53.711,33.203,22.949,-74.219,4.395
-64.453,38.574,27.832,-79.59,-4.395
-82.52,36.621,28.32,-86.426,41.504
-82.52,25.391,20.508,-85.938,40.039
-63.477,16.602,27.832,-83.496,47.852
-60.059,18.555,36.621,-79.59,30.762
-70.801,21.484,45.41,-83.496,3.418
-87.891,19.043,45.898,-95.215,35.156
-103.516,17.578,45.41,-102.539,20.996
-93.262,15.625,55.176,-99.121,54.688
-83.984,15.625,57.617,-92.773,36.133
-90.82,21.484,53.223,-93.75,-42.48
-109.375,21.484,53.223,-112.305,25.391
-117.676,17.578,60.059,-123.535,58.105
-106.934,12.695,61.523,-123.047,21.484
-98.145,9.766,70.312,-115.723,21.973
-104.492,13.184,69.824,-117.188,78.613
-111.328,14.16,56.641,-113.77,69.824
-117.188,9.277,53.711,-118.652,19.043
-105.469,5.371,56.152,-116.699,-34.18
-83.984,5.371,55.664,-102.051,-33.691
-82.031,13.184,47.363,-100.098,24.902
-86.914,15.625,42.48,-92.285,82.031
-88.379,11.719,33.691,-83.496,87.402
-77.637,11.719,31.25,-74.707,21.484
-62.012,15.625,31.738,-77.637,20.02
-57.129,20.996,28.32,-75.684,92.285
-54.688,22.461,21.973,-67.871,90.332
-63.477,18.555,14.648,-69.336,18.555
-53.711,18.555,27.832,-59.082,-29.297
-17.09,25.391,8.301,-49.805,-5.371
-10.742,25.879,0,-45.898,40.527
-22.949,25.391,34.668,-38.086,42.969
-22.461,26.855,32.715,-35.645,21.973
-4.395,29.785,19.531,-25.391,2.441
24.902,35.645,11.719,-0.488,52.246
32.227,36.621,7.324,8.301,10.254
28.809,40.039,4.883,10.254,-13.672
28.809,44.922,0.488,16.602,82.031
33.203,44.434,-3.418,16.602,55.176
50.781,41.992,-2.93,20.996,21.973
57.617,40.527,-1.465,20.02,4.883
50.293,38.574,-9.277,21.973,0.977
41.016,38.086,-9.766,27.832,55.176
41.504,35.156,3.906,26.367,49.316
68.848,33.203,5.859,43.457,68.359
75.195,37.109,5.371,53.223,52.734
67.871,41.504,-1.465,48.828,115.723
78.125,41.992,-40.039,58.105,94.727
78.613,38.574,-34.668,60.059,-24.414
77.148,34.668,6.348,59.57,-23.438
81.055,33.691,12.695,61.523,2.441
74.219,33.691,-1.953,62.5,-2.441
74.707,32.715,-15.625,71.777,53.711
72.266,27.832,-13.672,71.289,12.207
82.52,26.855,-16.602,70.801,-0.488
104.492,22.949,-32.715,77.637,58.105
98.633,20.02,-17.578,81.543,40.527
87.402,21.973,21.973,81.055,39.062
81.055,24.414,18.555,86.426,31.25
89.844,22.461,5.859,83.496,-6.836
105.957,17.09,4.883,86.426,43.457
96.191,19.043,-4.883,100.098,49.805
81.543,21.484,-3.906,88.867,-7.324
77.148,19.531,3.418,83.496,-25.879
89.355,17.09,-8.301,92.285,-19.043
109.863,17.578,-6.836,98.633,10.254
105.957,18.066,4.883,104.492,35.645
101.074,15.625,-9.277,110.352,71.777
98.145,18.066,-21.973,108.398,55.176
101.562,19.043,-10.254,108.398,30.762
117.188,22.461,-9.277,112.305,9.277
113.77,27.832,-12.207,104.492,5.859
104.492,25.391,-12.695,100.586,44.434
100.586,26.855,-21.973,104.004,27.832
104.492,27.832,-22.949,103.516,43.945
109.375,23.438,-12.207,93.75,64.941
100.098,20.996,-10.254,99.609,23.438
91.309,19.043,-11.23,100.586,36.133
85.449,18.555,-18.555,93.75,-14.648
84.961,21.973,-27.344,93.262,-10.742
96.68,23.438,-20.508,91.797,44.922
106.934,27.832,-20.02,92.285,45.898
101.562,27.832,-18.066,93.75,71.289
95.215,20.996,-15.137,97.656,64.941
90.332,21.484,-25.879,94.727,35.645
95.703,25.391,-36.133,90.82,31.25
101.562,25.391,-41.992,91.309,18.555
95.703,25.879,-46.387,94.238,-14.648
93.262,28.32,-55.176,88.379,-16.602
85.449,27.344,-62.012,76.66,27.344
95.215,28.809,-65.43,80.566,-17.09
110.84,30.762,-70.312,87.402,-27.344
95.215,23.926,-67.871,83.008,20.508
85.938,21.484,-65.918,82.52,19.531
83.496,26.367,-76.172,83.984,27.344
88.867,26.855,-66.895,86.426,3.418
102.539,20.508,-55.176,84.961,23.438
93.262,24.902,-64.453,80.078,85.449
82.031,26.367,-68.359,72.266,57.129
74.707,24.902,-55.664,63.477,-10.254
84.961,28.809,-45.898,67.383,-39.062
93.75,28.809,-37.109,71.777,39.062
82.52,29.785,-30.273,65.43,31.738
76.172,30.273,-34.18,55.664,-5.859
66.895,27.344,-44.922,59.082,35.156
69.824,27.344,-37.598,68.359,19.043
83.984,29.785,-24.414,71.289,50.293
75.195,24.902,-17.578,70.312,75.684
68.848,23.926,-19.043,69.336,61.523
70.801,26.855,-34.668,71.289,44.922
62.012,23.926,-29.785,68.848,0.977
73.242,23.926,-22.461,65.918,-0.977
76.66,26.367,-30.762,63.965,50.781
57.617,23.926,-35.645,61.523,72.754
49.805,27.344,-35.645,61.523,20.508
51.27,32.715,-35.645,56.641,-9.766
61.035,31.738,-35.645,54.688,30.762
60.547,32.715,-37.598,56.641,47.852
49.805,31.738,-39.551,52.246,10.254
44.434,31.738,-42.969,46.875,-35.645
42.48,34.18,-40.039,47.852,-15.137
54.688,37.598,-42.969,53.711,17.09
58.594,33.691,-43.945,48.828,29.785
44.434,30.762,-38.574,35.156,84.961
36.133,35.156,-37.598,35.645,124.512
32.715,37.109,-47.852,33.691,90.332
44.434,36.621,-61.035,33.691,57.129
55.176,35.645,-64.941,39.551,24.902
54.688,30.273,-52.246,41.992,11.719
48.34,29.785,-30.273,38.574,44.922
36.621,29.297,-27.832,32.715,38.574
49.805,24.414,-30.762,37.598,10.742
63.477,31.25,-27.832,39.551,-24.902
53.711,34.668,-26.367,32.715,-42.48
48.34,31.25,-26.367,37.598,4.883
36.621,30.762,-26.855,31.738,-20.996
45.898,28.32,-22.461,32.715,23.438
79.59,27.344,-22.949,67.871,69.336
61.035,40.527,-20.508,56.152,25.391
19.531,41.992,-19.043,10.742,52.246
10.254,34.18,-23.438,6.836,52.246
20.508,35.156,-35.156,7.324,1.465
20.02,31.25,-52.734,-19.043,17.09
0,38.574,-28.809,-32.227,3.418
-18.066,45.41,-6.348,-39.551,-1.953
-37.109,30.762,6.348,-66.406,5.371
-40.039,34.18,6.348,-75.195,-19.531
-35.156,50.781,-2.441,-77.148,67.383
-45.898,53.711,3.906,-81.543,92.285
-55.664,54.199,-1.465,-82.52,61.035
-57.617,51.27,-20.02,-83.984,52.734
-49.316,39.062,-34.668,-71.289,62.5
-23.926,33.203,-20.996,-54.688,42.48
-14.648,37.598,-3.906,-46.875,36.621
-18.555,38.574,-8.789,-38.574,15.625
-21.484,29.785,-19.531,-28.32,-29.297
-10.254,30.273,-24.902,-27.832,20.996
10.742,36.133,-26.367,-20.996,44.434
15.137,34.668,-28.32,-10.742,1.465
12.695,36.133,-35.645,-5.371,11.719
9.277,33.203,-43.945,-5.371,75.684
11.23,35.156,-44.922,-6.348,33.691
31.25,30.762,-42.48,2.441,-6.836
36.133,19.043,-37.598,10.254,16.113
27.344,33.203,-36.133,13.672,3.906
18.066,41.992,-41.016,8.301,25.879
19.531,42.48,-46.387,7.812,26.367
37.598,42.969,-48.34,13.184,76.172
45.898,38.086,-42.48,19.043,56.641
39.062,38.574,-37.598,27.832,19.531
36.133,39.551,-40.527,29.297,51.27
36.621,38.574,-42.48,28.809,63.477
54.688,34.18,-40.039,35.645,53.711
66.895,32.227,-39.551,41.504,2.93
55.176,34.18,-40.039,37.109,7.812
49.805,29.785,-28.32,38.086,26.855
45.898,30.762,-26.367,38.574,9.766
52.734,34.18,-28.809,38.086,32.227
66.406,36.133,-25.391,44.922,63.965
56.152,22.949,-24.902,40.527,75.684
43.457,16.113,-26.855,36.133,72.266
39.062,41.504,-28.32,37.598,60.059
47.852,37.109,-30.762,41.504,34.668
60.547,24.414,-33.203,35.645,-1.953
53.223,33.691,-29.297,31.25,22.461
39.551,40.039,-31.25,37.109,63.477
30.762,39.551,-36.133,36.133,26.367
34.18,38.574,-42.48,31.25,30.762
49.805,34.668,-36.621,35.156,11.719
46.387,29.785,-24.414,43.457,-18.066
35.645,31.738,-23.438,40.039,15.137
32.227,38.574,-21.973,32.715,56.641
40.527,41.016,-16.113,33.691,62.5
60.547,37.598,-13.672,39.551,33.691
56.152,33.203,-19.531,39.062,40.039
40.527,31.738,-23.926,38.574,50.293
34.18,36.621,-24.902,35.645,23.438
34.18,35.645,-19.043,29.785,14.16
39.062,25.391,-15.625,27.832,-13.184
37.598,24.414,-10.254,31.25,84.473
27.832,33.691,-7.324,26.855,120.117
13.672,31.25,-17.578,17.578,24.414
5.371,24.902,-10.254,10.742,-12.207
23.926,33.691,0,4.883,-2.441
31.25,39.062,2.441,6.836,-10.742
6.836,37.109,-1.953,4.883,40.527
-26.367,34.668,-0.488,-12.695,43.945
-42.48,31.738,13.184,-31.25,-9.766
-16.113,38.574,16.602,-29.785,0.977
0.977,43.457,22.461,-17.09,-34.668
-40.527,45.41,33.203,-42.48,-45.898
-68.848,44.434,18.066,-70.312,-0.488
-72.266,35.645,14.16,-66.895,9.766
-75.195,27.832,21.973,-70.801,24.902
-65.43,24.902,35.645,-83.008,25.391
-80.566,26.367,62.988,-94.727,23.438
-97.168,27.832,64.453,-93.262,67.871
-94.727,33.203,55.176,-95.215,108.398
-82.52,35.645,57.617,-97.656,85.449
-70.801,31.25,55.664,-98.633,31.738
-78.125,25.391,58.105,-96.191,35.645
-77.148,28.32,55.664,-82.031,24.414
-75.684,23.926,50.781,-75.684,-0.488
-82.031,16.113,65.918,-83.008,1.465
-79.102,22.949,66.406,-80.566,39.551
-69.336,30.762,53.711,-65.43,53.223
-70.312,29.297,46.387,-69.824,69.336
-73.242,30.273,43.457,-68.359,27.344
-59.082,29.297,40.039,-57.129,2.441
-42.48,23.926,41.504,-54.199,20.508
-44.922,25.391,51.758,-52.734,-39.551
-51.758,18.066,56.152,-48.34,54.688
-51.758,11.23,46.387,-39.551,135.254
-26.855,12.695,16.602,-23.438,16.602
0.488,14.648,19.043,-13.184,0
1.953,8.789,39.551,-8.301,19.043
0.488,13.672,36.133,7.324,17.09
6.348,28.809,23.926,27.344,34.668
28.809,33.691,-17.09,30.273,7.324
52.246,30.762,-30.762,20.02,-42.969
55.176,29.297,-1.953,41.504,-33.691
55.664,23.926,-9.766,61.035,41.992
59.57,12.695,-12.695,58.105,62.988
62.5,13.672,8.301,63.965,52.246
74.707,11.23,10.254,72.266,-7.324
84.473,12.207,-1.953,81.055,-0.488
83.008,16.602,-13.184,86.426,18.555
76.66,17.09,-23.926,79.59,32.715
63.477,21.484,-27.832,67.383,67.383
82.52,22.461,-32.715,76.66,83.984
98.633,19.043,-28.809,89.844,89.355
84.961,22.461,-28.32,86.914,38.086
80.566,28.32,-38.086,81.543,58.594
73.242,28.32,-50.293,84.473,52.734
83.496,24.414,-55.176,82.031,-5.859
102.051,25.879,-52.734,82.031,-8.301
99.121,29.785,-47.363,86.914,21.484
81.055,25.879,-52.246,71.289,1.953
65.43,28.32,-58.594,66.406,19.043
79.102,33.691,-60.059,83.496,66.406
85.938,27.832,-58.594,78.613,69.824
76.172,26.855,-51.758,74.219,28.32
73.73,29.785,-55.664,87.402,48.828
63.477,26.855,-68.359,79.59,43.945
73.242,28.32,-73.242,72.754,-9.277
96.191,29.297,-69.336,74.219,0
81.543,24.902,-69.824,76.172,-12.695
66.895,26.367,-61.035,73.73,63.477
66.406,34.18,-60.547,75.195,99.121
62.5,28.809,-60.059,71.777,44.434
71.289,22.461,-45.898,65.43,-41.992
72.266,26.367,-39.062,65.43,-23.926
67.871,27.832,-39.062,70.801,20.996
61.523,21.973,-47.363,67.871,-4.395
66.406,25.879,-45.898,61.035,57.129
78.125,34.18,-40.039,63.965,75.195
73.242,33.691,-48.34,65.43,61.035
70.801,32.715,-50.781,64.453,41.504
54.199,28.809,-41.992,61.523,30.762
44.434,26.855,-41.016,51.758,35.156
62.5,28.32,-43.945,42.969,32.715
61.035,24.414,-34.18,49.805,63.965
54.199,23.438,-25.391,50.293,23.926
47.852,23.438,-35.156,41.016,8.301
41.992,19.043,-39.551,42.48,59.082
54.199,16.602,-38.574,49.805,76.172
61.035,18.066,-46.875,46.875,47.363
50.293,25.391,-53.223,38.086,36.621
45.898,27.832,-55.664,32.715,15.137
47.363,25.391,-51.758,39.551,-7.812
56.641,23.926,-40.039,44.434,31.25
60.547,22.949,-33.203,38.086,64.453
45.898,26.367,-34.18,30.273,87.891
35.645,23.926,-38.086,22.461,62.988
32.227,21.484,-57.617,24.902,-3.906
49.316,25.879,-69.336,23.438,33.203
51.758,24.902,-52.734,22.461,30.273
34.18,25.879,-49.316,29.785,20.508
31.25,28.32,-64.941,29.785,84.961
22.461,26.855,-73.242,24.414,13.672
19.531,18.066,-62.5,18.066,-42.48
34.18,17.578,-54.688,14.16,31.25
41.992,26.367,-62.988,10.742,47.852
31.25,25.879,-70.312,13.184,23.438
17.578,21.484,-59.082,17.09,29.785
23.926,17.578,-46.387,12.695,14.16
36.133,19.043,-50.781,9.277,21.973
35.645,24.414,-51.27,9.277,25.879
29.297,20.508,-38.086,21.484,31.25
22.949,15.625,-25.879,22.461,57.617
27.344,19.531,-20.508,13.672,45.898
38.574,20.996,-13.672,19.531,5.371
42.48,23.926,-5.371,19.043,36.621
32.227,23.438,-2.93,15.625,46.387
17.578,23.926,0,20.02,4.883
23.438,29.297,-0.977,4.883,16.602
37.109,26.855,2.441,-5.859,66.406
32.227,25.391,27.832,9.766,40.527
24.902,23.438,30.762,16.113,26.855
17.09,22.949,11.719,14.16,59.57
19.043,25.391,17.09,7.324,59.082
35.645,25.391,29.785,5.859,59.57
42.48,26.367,29.785,20.508,71.289
34.668,26.855,26.367,31.25,57.617
26.855,27.344,20.996,26.367,17.578
26.855,29.785,16.602,27.344,-12.207
42.969,30.273,12.695,28.32,32.715
48.828,27.832,13.672,25.879,58.105
35.645,28.32,14.16,33.203,40.527
25.879,26.855,9.766,31.25,21.484
20.508,23.438,9.277,23.438,-5.371
28.809,21.484,7.812,22.949,-15.625
40.039,20.02,3.906,22.949,-28.809
33.691,18.066,9.766,23.438,6.836
21.973,18.555,17.09,25.391,-0.488
14.648,23.926,13.672,20.02,-50.293
25.391,27.344,8.301,17.578,-3.906
41.992,31.738,11.23,20.02,16.602
35.645,35.645,1.465,10.742,14.648
25.391,32.227,5.371,14.648,55.664
16.602,26.855,25.879,24.414,26.367
21.484,24.414,24.902,22.461,19.043
37.598,25.879,28.809,28.809,20.996
32.715,24.414,40.039,29.785,50.293
22.949,21.973,31.25,24.902,63.965
19.531,23.926,24.902,17.09,13.184
23.926,25.391,27.344,12.695,2.93
37.598,24.902,35.645,26.367,6.836
32.227,24.414,41.504,35.645,24.414
20.996,24.414,40.527,26.855,-1.465
19.043,22.461,33.691,16.602,-30.762
21.484,22.949,37.598,15.625,-2.441
32.715,24.902,51.27,25.879,80.078
32.227,21.484,52.734,30.762,77.148
30.762,27.832,44.922,27.344,22.461
24.414,30.762,37.109,25.391,46.387
17.578,26.367,43.945,22.949,74.219
33.203,27.832,48.34,22.461,45.41
37.598,31.25,49.805,28.32,-19.043
24.902,30.762,53.223,27.344,-45.41
13.184,26.367,57.129,32.715,-8.789
21.484,28.809,54.199,35.156,48.34
37.109,32.715,46.875,29.297,14.16
40.039,30.273,50.293,31.25,-15.137
35.645,29.297,49.316,35.156,3.906
26.855,29.785,47.852,37.109,34.18
24.414,31.25,55.664,21.484,41.016
22.949,27.344,56.641,18.066,33.691
30.762,14.16,71.289,51.27,32.227
45.41,25.879,70.801,60.059,41.992
39.551,42.969,60.547,38.574,124.512
35.156,49.316,62.5,18.555,115.723
43.457,47.852,64.453,15.625,13.184
48.828,42.48,72.266,26.855,-10.742
42.48,46.387,59.57,15.625,9.766
28.32,43.945,52.246,12.695,9.766
20.02,41.504,54.688,13.672,-1.465
38.086,51.27,34.18,4.883,-17.578
60.059,50.293,18.555,0.488,0
47.363,47.363,11.719,8.301,46.875
41.992,51.27,-7.324,13.184,45.898
36.133,46.387,-13.184,13.184,-27.344
22.461,38.574,2.93,20.508,-72.266
45.41,41.504,4.395,18.066,-18.066
64.453,49.805,-6.348,6.836,6.836
52.734,48.34,-15.625,12.207,13.184
37.109,45.41,-15.137,19.531,44.434
42.969,50.293,-9.277,17.578,33.203
50.781,44.922,-10.742,22.949,45.898
47.363,40.039,-8.789,28.809,33.691
51.27,41.504,-5.371,28.809,10.742
51.758,42.48,-4.883,24.414,62.988
54.199,36.133,-2.441,28.809,54.199
60.059,23.926,5.859,43.457,50.781
57.129,32.227,20.02,35.645,94.238
54.199,43.457,21.973,18.555,60.059
37.598,36.133,20.996,14.16,10.742
36.133,32.227,29.785,13.184,-5.859
58.594,38.574,28.32,19.043,-41.016
58.594,41.992,39.062,21.973,12.207
46.875,38.574,51.758,27.832,66.406
39.551,36.133,43.945,29.297,104.98
36.133,34.18,29.297,21.973,86.426
46.387,28.32,30.273,19.531,22.461
38.574,22.461,42.969,28.32,-15.625
26.367,29.297,39.062,27.832,-1.953
25.391,35.156,27.832,19.531,22.949
28.809,35.156,18.555,11.719,-28.809
55.176,34.668,21.973,16.602,45.898
53.711,34.18,35.156,22.949,107.422
34.18,38.086,37.598,20.02,46.387
43.457,41.992,41.504,28.809,37.109
19.043,38.574,40.527,28.809,94.238
22.949,37.598,29.297,30.762,59.57
58.594,36.133,27.344,27.344,12.207
42.48,38.086,26.367,16.602,30.762
24.414,35.156,23.926,26.855,64.453
29.297,30.762,20.02,22.949,45.898
20.508,31.738,14.16,13.672,-7.812
31.25,33.203,17.578,21.973,-13.672
28.809,34.18,23.438,28.32,4.395
30.273,33.203,19.043,39.062,15.625
26.367,30.273,12.695,24.414,13.184
19.043,26.855,12.695,16.602,-3.906
25.391,27.832,20.02,36.133,-28.32
22.461,31.25,26.367,37.109,10.742
31.25,37.109,24.902,29.785,42.48
27.832,36.133,26.367,17.578,72.266
22.949,30.762,25.879,17.09,50.781
41.016,30.762,34.668,31.738,31.738
28.32,31.738,34.668,28.32,3.906
17.578,33.691,32.227,27.344,-22.461
9.277,34.668,34.18,25.391,32.227
5.371,32.715,26.367,1.953,-8.301
21.973,24.902,24.414,11.719,9.766
23.926,22.461,25.879,37.598,75.684
20.996,29.785,22.949,25.391,49.805
18.555,30.273,17.578,12.207,39.062
25.391,25.391,17.09,20.508,26.367
24.902,20.02,16.602,7.324,0
30.762,28.32,23.438,10.742,5.859
47.363,38.086,31.738,38.574,19.043
27.832,32.715,23.926,47.363,45.898
19.043,30.273,15.137,24.414,42.969
38.574,34.668,17.09,9.277,60.547
35.156,35.156,13.672,19.531,-2.441
16.113,26.855,13.672,20.508,-19.531
25.879,33.203,19.531,16.113,55.664
24.414,35.645,30.273,18.066,46.387
12.207,23.926,31.25,20.02,14.648
26.855,22.949,20.508,15.625,-42.969
13.672,26.367,30.762,6.836,-27.344
-1.465,27.344,44.434,9.766,75.684
18.555,31.25,39.551,26.855,54.199
32.715,31.25,34.668,35.156,10.742
39.062,30.273,32.227,31.25,48.34
22.461,30.762,33.691,18.066,31.738
-3.418,24.414,32.715,14.16,-9.766
11.719,24.902,22.949,9.766,-23.438
33.691,32.227,19.531,17.578,30.762
35.156,33.691,16.602,29.297,95.215
25.879,33.203,15.137,17.578,48.34
7.324,32.715,21.973,18.066,-42.48
13.184,32.227,22.461,37.598,-11.23
19.043,31.738,14.16,40.039,39.551
6.348,32.227,26.855,19.531,10.742
27.344,35.645,49.805,21.973,50.293
42.969,36.133,44.434,32.715,32.227
25.879,36.133,41.992,15.625,16.602
12.207,36.133,50.781,15.625,26.367
26.367,29.297,51.758,34.668,22.949
19.043,31.25,46.875,40.039,44.434
0.488,39.062,45.898,35.645,0.488
8.301,38.086,48.828,20.508,18.555
4.395,29.297,46.875,17.578,54.688
31.738,31.25,47.852,35.156,10.742
51.758,31.738,58.105,44.922,21.484
19.531,26.855,67.383,50.293,70.312
5.859,29.297,62.012,34.18,45.898
11.719,41.504,57.617,4.883,27.344
41.504,42.969,59.082,10.742,60.547
56.152,33.691,65.918,35.645,54.199
44.922,36.621,70.801,36.621,72.754
60.547,38.086,73.242,32.227,62.5
49.316,36.621,76.66,38.086,6.836
31.738,36.133,70.312,33.203,32.715
52.246,40.039,69.336,23.926,59.082
49.316,43.945,72.754,41.504,14.16
26.367,37.109,76.172,46.875,12.695
28.809,37.109,76.172,23.438,41.992
57.617,43.457,74.707,27.832,12.207
47.363,42.48,83.008,34.668,-23.926
32.715,41.992,92.285,37.109,22.949
30.273,42.969,88.379,33.691,58.594
15.137,40.039,83.496,24.414,-14.648
25.879,41.016,94.238,21.484,-1.465
42.969,41.504,98.145,29.297,20.02
27.832,38.086,91.309,40.039,-13.672
19.531,36.621,92.285,36.133,-10.254
22.949,37.109,97.656,23.926,30.273
37.598,39.062,97.168,40.527,39.551
50.293,41.016,97.168,47.363,48.34
45.41,37.109,99.121,41.992,88.867
51.27,33.691,90.332,48.828,109.375
35.645,33.691,75.684,39.062,87.402
9.766,30.762,74.219,35.645,18.555
36.133,34.668,71.777,27.344,-14.16
46.875,38.086,77.148,14.648,8.301
31.25,33.691,86.914,17.578,19.531
24.414,30.762,74.707,18.555,-25.391
42.48,31.738,64.941,23.438,-50.781
32.715,32.227,81.543,32.227,7.324
19.043,29.297,92.773,35.645,-11.23
16.113,27.832,85.938,22.949,-16.113
7.324,34.18,75.195,11.23,65.918
12.695,34.668,68.359,15.625,31.25
28.32,31.25,75.684,25.391,-29.785
46.875,31.25,71.777,34.18,-21.973
32.227,31.738,55.176,31.25,54.688
0,36.133,52.734,7.812,78.613
14.16,36.621,55.664,5.371,42.48
35.645,32.227,55.176,18.555,36.133
34.18,35.156,66.406,11.719,50.293
30.762,35.645,67.871,22.949,71.777
20.02,35.156,56.641,26.855,-1.953
25.879,37.598,58.594,8.301,-16.602
34.18,41.016,57.617,8.301,25.879
27.344,40.039,54.199,8.789,34.668
30.762,42.48,60.059,8.301,-3.418
37.598,45.41,65.918,17.09,7.812
18.066,39.551,63.477,13.184,45.898
29.297,39.062,64.453,7.812,14.648
42.969,40.527,74.707,28.32,23.926
30.273,42.48,83.984,28.32,35.645
18.066,39.551,81.543,26.367,29.297
25.391,39.062,73.73,38.574,27.344
44.922,40.527,71.289,11.719,12.207
41.992,38.574,75.684,6.836,50.781
18.555,37.598,63.965,13.184,66.406
20.508,35.156,58.594,22.461,42.48
30.762,34.18,62.5,30.273,-11.719
44.922,34.668,56.152,21.484,-28.809
39.551,35.645,48.34,7.324,-28.32
11.719,30.273,42.969,-2.441,2.93
9.277,27.832,40.039,4.883,32.715
9.277,31.738,36.621,13.672,13.184
27.344,30.273,36.133,16.602,33.203
42.969,31.738,42.969,13.184,56.152
31.738,34.668,57.129,31.738,31.25
24.902,33.203,65.918,47.852,53.711
14.16,32.715,61.035,25.879,46.387
9.766,37.598,57.129,11.23,8.301
24.414,38.574,60.547,8.301,-16.113
21.484,37.598,58.594,0.977,-31.738
25.879,37.598,54.688,9.766,26.855
17.578,35.156,54.199,16.602,16.602
14.648,33.203,51.27,15.137,41.016
29.297,33.203,43.945,9.277,55.176
30.762,36.133,38.574,22.461,34.668
39.062,34.668,32.715,26.855,15.625
25.391,29.297,30.762,26.367,11.719
5.859,29.297,33.203,23.438,81.543
27.344,29.785,41.016,7.324,57.617
47.852,37.109,43.457,17.09,25.879
38.574,42.969,36.133,19.043,48.34
22.949,35.645,38.574,13.672,20.508
13.184,38.086,35.156,11.23,-6.348
28.32,40.039,33.691,3.418,68.848
31.25,37.109,41.016,5.371,83.496
22.461,39.551,37.598,17.578,40.527
29.297,35.156,34.668,28.32,48.34
10.254,31.738,40.039,16.113,60.059
34.18,43.457,42.969,9.766,0.488
74.707,52.246,39.551,32.715,-25.879
54.199,44.434,44.434,42.48,-11.719
22.949,39.551,60.547,34.18,1.953
5.859,41.504,68.848,12.695,25.391
10.742,36.133,62.988,7.324,17.09
23.926,33.203,63.965,22.949,26.367
17.09,31.25,71.777,30.762,54.199
3.418,21.484,77.148,11.23,35.645
-5.859,19.531,73.73,-5.371,-6.836
-9.277,13.184,82.031,10.254,14.16
1.465,1.953,104.492,4.883,-3.906
10.742,8.301,100.586,18.066,14.16
-19.043,7.324,83.496,7.812,40.527
-21.973,5.371,80.078,2.93,4.395
-1.953,11.23,70.312,16.602,-27.344
16.602,15.137,65.43,10.254,-34.668
20.02,16.113,68.848,21.484,4.883
7.324,14.648,57.129,21.973,32.227
5.859,16.602,56.152,27.832,24.414
18.555,17.578,58.105,40.039,56.641
15.625,18.555,50.293,24.414,51.758
-0.488,19.531,56.152,15.625,54.688
5.859,24.414,56.641,23.438,80.078
10.742,27.832,50.293,27.832,45.41
3.418,26.855,58.594,23.438,-20.508
28.32,27.832,69.336,18.555,-37.109
32.715,30.762,73.242,24.414,2.441
11.23,32.715,74.219,26.855,11.719
0.488,28.32,70.801,13.672,33.691
-2.441,26.855,62.988,12.207,66.406
15.137,27.344,67.383,23.926,48.828
17.578,25.879,82.52,30.273,15.625
12.695,29.297,75.195,26.367,54.688
8.789,31.738,62.988,23.926,42.48
4.883,27.832,63.965,15.137,-5.371
17.578,29.297,70.312,19.531,28.809
37.109,36.621,70.801,31.25,37.109
31.738,36.621,62.5,31.25,-16.113
21.973,38.086,61.523,26.855,12.207
18.555,37.109,64.941,21.484,18.066
24.414,36.621,60.547,32.715,3.418
43.457,41.992,56.152,43.945,6.836
35.156,44.434,50.781,40.039,26.367
17.09,41.504,41.504,37.598,23.438
18.555,41.992,38.086,30.273,27.832
35.645,43.457,33.203,27.344,16.602
52.246,44.922,26.367,31.738,-32.715
48.828,44.922,23.438,34.668,7.324
37.598,42.48,24.414,34.668,-11.23
29.297,39.062,20.02,24.414,-11.719
32.715,32.227,13.184,20.508,54.688
41.504,30.273,9.766,30.273,46.875
34.668,30.762,3.906,30.762,-2.93
27.344,29.297,0.488,22.949,24.902
23.438,30.762,3.418,20.996,8.789
27.344,27.832,7.812,28.809,29.785
45.41,22.949,8.789,34.18,75.684
42.48,27.344,9.766,38.574,62.5
33.203,31.738,9.277,33.203,53.711
28.32,33.203,-0.977,22.949,36.621
28.32,34.18,-4.883,26.855,24.902
43.457,33.691,1.465,33.203,25.391
41.016,32.715,2.441,33.203,0.977
20.996,35.645,-3.906,26.367,1.953
8.789,36.133,-12.207,22.949,19.043
11.719,32.715,-16.602,21.973,50.781
37.598,33.203,-13.184,18.555,57.617
35.156,34.668,-0.977,18.555,49.805
16.602,35.156,0.977,13.672,55.176
13.184,33.691,-4.883,10.742,80.566
19.531,35.156,3.418,19.043,97.168
34.18,35.156,9.277,18.066,3.906
25.391,30.762,10.742,20.02,-34.18
11.719,28.809,14.648,22.461,-8.301
15.137,30.273,15.137,15.137,26.367
13.672,29.785,13.672,12.695,39.062
18.555,29.785,16.602,19.531,57.129
22.949,27.832,13.672,18.555,4.883
11.719,26.855,14.16,12.695,21.484
13.184,30.762,16.602,10.742,57.129
14.648,29.785,16.602,5.859,14.648
22.949,29.297,12.207,4.395,13.672
50.293,32.227,8.789,5.371,9.277
49.805,31.25,4.883,5.371,58.105
30.273,30.762,-1.953,12.695,58.594
15.137,31.25,3.906,13.672,12.695
19.531,31.738,12.695,15.137,-2.93
30.762,34.18,16.113,20.508,9.277
19.531,35.156,14.648,22.949,37.109
11.719,34.18,8.789,24.902,0.977
17.09,34.668,3.418,20.996,-51.758
25.391,36.621,7.324,20.02,-17.578
30.273,35.156,16.602,18.066,22.461
24.902,36.133,20.996,20.508,68.848
15.137,35.156,20.02,23.926,72.266
12.695,31.738,12.207,17.09,58.105
24.414,27.832,-0.488,14.16,53.223
36.133,29.297,3.906,16.113,103.027
25.391,32.227,11.719,23.926,75.684
18.555,28.32,10.254,20.02,31.738
16.113,29.297,12.695,6.836,40.527
17.09,28.32,10.254,5.371,14.648
26.367,23.438,17.09,10.254,32.227
25.391,23.926,29.297,8.789,64.941
23.926,24.414,16.113,5.859,14.16
14.16,21.973,15.137,-2.93,12.695
8.789,23.438,21.484,-5.371,52.246
22.949,24.414,18.066,4.395,84.473
27.344,25.879,18.555,6.836,62.012
14.648,25.879,16.602,9.766,88.379
0.977,22.949,8.789,8.789,78.613
4.883,23.438,6.836,-0.977,29.297
34.18,23.926,8.789,8.301,19.043
32.227,22.949,9.766,14.16,15.625
10.742,21.484,7.812,8.789,41.016
12.207,20.508,1.953,8.301,29.297
4.395,19.531,-4.395,9.277,-6.836
17.578,24.414,-0.977,9.766,8.789
33.691,32.227,14.648,6.836,41.992
18.555,29.785,18.066,14.648,73.73
12.207,24.902,8.789,22.949,43.457
18.066,30.762,5.371,20.508,-3.906
23.438,30.273,7.324,15.137,-10.254
27.344,22.949,11.719,15.137,17.578
22.461,22.949,13.672,14.648,21.484
10.254,26.367,10.254,16.113,4.883
4.395,25.879,12.695,20.02,19.043
21.484,25.391,16.602,14.16,49.805
38.574,29.785,17.09,8.789,63.477
27.344,31.25,17.09,12.695,20.02
15.137,30.762,16.602,13.672,13.184
6.348,28.32,17.578,4.395,6.348
11.719,26.367,16.113,3.418,7.324
30.273,27.344,20.02,5.371,26.367
31.25,28.32,13.184,4.883,14.16
21.973,24.902,4.883,2.441,61.035
7.812,20.508,3.418,-1.953,31.25
7.324,17.09,-6.348,-3.418,-4.883
25.391,13.672,4.395,7.812,19.043
19.043,16.602,15.137,14.16,14.16
16.113,18.555,6.348,10.254,43.457
13.672,16.113,3.906,13.184,67.871
4.883,18.066,3.418,16.113,44.922
23.926,24.414,7.324,24.414,8.789
28.32,25.879,5.859,26.855,12.695
16.602,19.043,1.465,23.438,60.059
8.301,19.531,1.465,17.578,52.246
13.184,22.949,2.441,12.695,50.293
37.109,22.949,4.395,14.16,64.453
35.156,23.926,-1.953,16.602,63.477
13.672,24.902,-7.812,20.996,4.883
8.789,23.926,-6.836,16.602,17.578
16.113,24.902,-3.906,10.254,11.23
29.785,28.32,-1.465,19.043,-27.832
25.879,28.809,3.906,26.855,35.156
9.277,27.832,-0.977,25.879,1.465
7.324,24.414,5.859,19.531,14.648
6.348,24.414,10.742,12.207,45.41
20.508,27.344,-0.977,19.043,-3.906
33.691,23.926,4.883,30.273,15.625
23.926,24.902,4.395,26.855,-21.484
17.09,30.762,-1.953,20.996,-20.508
7.812,31.25,2.441,14.648,61.523
18.555,30.273,12.207,13.184,61.035
38.086,31.738,18.066,17.09,38.574
28.32,30.273,3.906,12.695,-1.465
19.043,27.832,2.441,12.695,49.805
11.719,30.762,12.207,11.719,51.758
20.996,34.18,3.418,8.301,-86.426
38.086,35.156,6.836,9.766,-31.25
35.156,35.156,2.93,10.742,-31.25
30.762,36.621,-7.812,5.371,-25.391
21.484,38.574,-8.301,-0.977,35.645
18.066,37.109,-9.277,-0.488,-15.625
31.25,36.621,2.441,0,-13.672
26.855,33.691,6.836,-2.441,35.156
21.973,31.25,-13.184,-3.418,24.902
22.949,31.738,-17.578,-1.953,64.941
26.855,31.25,-12.207,-2.441,44.922
38.574,31.25,-3.418,0.488,-13.184
31.738,34.18,0.488,9.277,-21.484
20.996,34.668,-6.836,11.719,-20.508
20.996,32.227,-9.277,5.859,34.18
33.691,30.273,-7.812,6.348,46.875
46.875,31.25,-1.953,8.301,26.367
34.668,29.297,0.488,12.695,28.32
16.602,27.832,-2.441,17.578,4.395
20.996,28.809,2.93,18.066,19.043
30.762,22.949,2.93,24.414,10.742
44.922,25.879,9.277,26.855,69.824
42.969,31.25,30.762,30.762,93.75
31.25,34.668,28.809,34.668,-6.836
29.785,31.25,11.719,25.879,-27.832
30.762,29.785,4.395,22.461,22.461
40.039,35.645,0.488,23.926,20.508
42.48,35.156,5.371,28.809,9.277
33.691,32.715,11.719,28.809,44.434
28.809,32.715,13.184,20.996,27.832
25.879,31.25,15.625,17.578,70.801
36.621,29.785,21.484,19.531,73.73
47.852,29.785,29.785,31.738,31.25
42.969,30.273,33.203,36.133,74.707
36.621,28.32,29.785,26.367,71.289
26.367,26.367,20.996,20.996,75.684
33.203,27.344,15.625,24.414,3.418
39.551,25.391,23.926,28.32,0
27.832,24.902,23.438,32.227,10.742
22.461,27.344,20.996,36.621,-49.805
12.695,25.879,26.367,35.645,32.715
21.973,23.438,17.09,29.785,10.254
39.551,26.367,22.461,32.227,-10.254
34.668,30.762,29.785,37.109,80.078
23.438,32.227,25.879,37.109,50.781
18.555,29.785,20.996,32.715,-10.254
28.809,30.273,19.043,23.438,29.297
34.18,31.738,24.902,27.832,49.316
15.625,29.297,19.043,37.109,53.711
7.812,23.438,12.207,30.762,37.598
3.906,20.508,-1.953,25.879,5.371
5.371,22.461,-3.906,23.438,-8.789
18.066,24.414,3.906,22.461,30.762
18.066,22.461,-6.836,21.973,41.504
9.277,24.414,-0.977,11.719,9.277
-5.371,27.344,0.977,12.207,-43.945
-0.977,21.973,-7.812,15.625,-22.949
16.602,20.02,-5.371,21.484,-0.488
16.113,26.367,8.301,23.926,-37.109
9.277,24.414,8.301,23.438,22.949
5.859,19.043,6.348,23.438,-5.859
2.441,21.973,15.137,17.578,-13.184
15.625,23.926,19.531,14.16,61.523
25.879,24.902,31.25,16.113,70.312
-0.977,32.227,21.973,14.648,50.781
-8.301,38.574,12.207,25.391,43.945
11.719,35.645,26.855,23.926,47.363
19.043,31.738,26.855,10.254,24.414
25.391,27.832,31.25,10.742,32.715
15.625,19.531,33.691,10.254,33.203
1.953,20.02,23.438,11.23,65.43
-26.855,23.926,13.184,2.93,38.574
-23.926,18.555,17.09,1.465,6.348
7.812,15.625,21.973,6.348,12.695
-3.418,20.996,18.555,5.859,-19.531
-4.883,22.949,11.23,3.906,90.332
-10.742,24.902,-9.277,-18.555,71.777
-30.273,27.344,-10.254,-31.25,0.977
-15.137,16.113,-0.488,-2.93,38.086
0.488,14.16,-24.414,3.906,20.02
-13.672,19.043,-50.293,-7.324,20.02
-14.16,16.602,-76.172,-0.977,81.543
5.859,20.02,-123.535,-1.953,102.051
0,23.926,-167.969,-2.93,29.785
-29.297,20.02,-193.359,1.465,-25.879
-33.691,20.996,-209.961,-12.207,-11.719
-40.039,29.785,-229.492,-27.344,57.617
-37.109,26.367,-233.887,-35.156,26.367
-16.602,20.508,-231.934,-16.113,20.02
-22.949,19.043,-244.141,0.488,42.48
-6.836,24.414,-248.535,-8.789,-4.395
-39.551,27.832,-240.723,-19.531,-11.719
-46.875,23.926,-264.648,-12.207,-41.504
2.93,15.625,-274.902,-7.812,9.277
-11.719,20.508,-255.859,-15.625,77.148
-20.996,21.484,-255.859,-20.02,84.961
-0.977,20.508,-255.859,4.395,72.266
-4.395,23.438,-257.324,-6.836,34.668
-0.488,16.113,-260.254,-13.184,31.738
14.648,22.949,-242.676,21.484,25.391
7.324,31.738,-202.637,29.297,7.812
-16.602,35.645,-163.574,10.254,40.527
-20.996,26.855,-143.066,-8.789,27.832
9.277,25.391,-126.465,-11.23,11.719
12.695,38.574,-90.332,2.93,28.809
8.789,33.691,-62.5,34.668,24.414
20.508,25.391,-27.832,57.129,70.801
16.113,25.391,30.273,37.109,83.496
14.16,31.25,122.07,13.672,48.34
34.18,36.621,227.539,17.578,26.855
46.387,32.715,307.129,38.086,26.367
29.297,29.297,392.578,30.762,-8.789
12.207,27.832,477.539,17.09,3.906
41.504,30.762,566.895,27.832,30.762
43.457,34.668,640.137,20.02,52.734
5.859,34.18,686.035,3.418,35.156
7.324,39.551,763.184,8.301,-20.996
20.508,55.664,830.566,4.883,-0.977
12.207,51.758,871.582,11.719,81.543
24.902,34.18,907.227,27.344,110.84
34.18,42.969,944.824,26.367,74.707
20.02,51.758,982.91,27.832,81.055
13.672,51.27,993.164,22.461,74.707
17.09,54.199,998.535,12.695,77.148
30.762,53.223,999.512,17.578,68.848
27.344,56.152,999.023,24.902,25.879
17.09,62.012,999.512,14.16,-18.066
9.277,56.152,999.512,12.207,-17.09
9.766,55.176,999.512,14.648,-6.836
19.531,57.129,999.512,15.625,19.043
14.648,55.176,999.512,23.438,41.992
11.719,65.43,999.512,22.461,23.438
9.766,75.195,999.512,15.625,23.438
1.953,62.988,999.512,10.742,29.297
6.836,58.105,999.512,5.859,-35.645
4.883,62.5,999.512,-1.465,-20.02
-1.465,64.941,999.512,0,-12.207
0,66.895,999.512,6.836,-67.871
1.465,66.895,999.512,8.301,-12.695
20.996,71.777,999.512,2.93,33.691
20.996,76.66,999.512,2.441,54.688
2.441,73.242,999.512,-3.418,45.41
7.812,77.637,999.512,-2.441,-4.883
11.23,79.59,998.535,-1.953,2.93
11.23,78.125,-999.512,-3.906,-15.625
6.348,82.031,989.746,-4.395,-40.039
7.812,77.148,964.355,14.16,0.488
15.137,70.312,943.359,12.207,14.648
5.371,69.824,925.293,-6.836,-2.93
0.977,81.055,925.293,9.766,6.348
32.227,88.867,936.035,36.133,-19.043
36.133,99.609,913.086,28.809,28.809
16.602,87.891,875.977,17.578,62.5
14.16,81.543,847.656,20.996,34.668
23.926,90.82,836.426,20.996,46.387
56.641,92.773,868.164,15.137,31.25
42.969,106.445,865.234,16.113,66.895
1.465,100.098,852.539,23.438,59.082
11.23,97.168,878.906,23.438,41.992
27.832,110.84,879.883,6.836,69.824
36.621,116.699,873.535,8.301,34.18
27.344,113.281,886.719,21.973,48.34
21.973,114.258,896.484,26.855,21.484
21.973,115.234,909.18,27.832,-15.137
40.527,117.188,885.742,13.672,51.758
50.293,118.652,879.395,19.531,16.602
37.109,126.465,879.395,31.738,24.414
38.086,132.812,873.047,29.297,57.617
25.391,131.348,847.168,22.949,10.742
28.32,142.09,801.758,25.879,-13.672
47.852,148.438,781.25,26.367,8.789
38.086,140.625,745.117,22.949,44.434
27.832,132.812,716.797,27.344,17.09
18.066,141.113,685.059,22.949,32.715
18.555,154.297,645.508,11.23,39.551
33.203,140.137,633.789,21.973,0.977
30.762,135.254,596.68,33.203,-10.254
23.926,143.555,520.02,22.949,10.254
11.719,142.09,501.953,20.996,34.668
7.812,134.766,492.188,19.531,23.438
36.133,131.836,436.035,12.207,-29.785
46.387,139.648,409.668,15.137,50.781
23.438,136.23,402.344,17.578,46.387
13.184,128.906,384.766,14.648,-17.09
17.578,146.973,370.605,11.719,26.367
30.273,145.508,356.445,23.926,42.969
36.621,130.371,342.773,43.457,35.645
25.879,135.254,313.477,26.855,29.297
15.625,142.09,314.941,11.719,65.918
18.066,144.043,328.613,14.16,53.223
40.527,145.996,314.453,21.973,-27.832
34.668,149.414,333.008,20.02,-29.297
2.441,145.996,318.359,12.695,52.246
2.93,152.832,305.176,18.555,70.312
10.742,158.691,300.293,18.555,18.066
22.949,148.926,270.996,6.836,29.785
32.715,145.996,266.113,16.602,56.641
17.578,153.32,253.906,19.043,0
11.719,156.738,252.93,10.742,16.113
11.719,159.668,260.742,6.836,62.012
26.855,159.668,230.469,5.859,-0.488
45.41,157.227,207.52,10.254,21.973
24.902,160.645,212.402,15.137,66.895
8.301,164.062,197.266,12.207,106.445
21.484,165.039,181.152,13.672,69.336
30.762,158.203,171.387,13.672,45.41
26.855,161.621,163.086,8.301,59.57
24.414,173.828,170.898,7.324,69.336
16.602,163.086,185.059,12.207,13.184
16.602,167.48,198.73,21.973,19.531
29.785,181.641,205.078,17.578,69.824
29.297,175.781,193.848,7.324,52.734
41.016,172.852,198.73,5.371,63.477
23.926,176.27,215.82,8.789,26.855
0.977,180.176,212.402,13.184,38.574
20.996,178.711,205.566,11.23,45.41
31.25,178.223,217.773,10.742,27.832
22.461,188.477,259.277,25.879,23.926
14.16,191.406,280.762,26.367,45.898
14.648,195.312,288.574,18.066,30.762
20.508,198.73,268.066,17.09,19.531
35.645,203.613,288.086,20.508,24.902
36.621,210.449,316.406,27.832,20.996
23.438,202.637,282.227,24.414,43.945
15.137,204.59,264.16,19.531,48.828
18.066,210.449,278.809,18.555,42.969
33.691,206.543,296.875,19.043,38.574
30.273,221.68,292.48,18.066,16.602
27.344,213.379,293.945,30.762,7.812
22.461,190.43,286.621,27.832,51.758
2.93,196.289,240.723,8.301,64.941
7.812,205.078,226.074,11.23,18.555
14.16,209.473,251.953,18.066,12.695
8.789,208.008,254.883,19.531,82.031
7.812,215.82,241.699,13.672,69.824
1.465,213.867,241.699,11.719,20.02
13.672,206.055,245.605,18.066,-7.812
22.949,212.891,265.137,15.625,27.832
26.367,219.238,268.555,2.93,-1.953
16.602,223.633,264.16,4.883,-1.465
-17.09,222.168,256.348,14.16,58.594
9.277,219.727,260.742,12.695,54.199
32.715,216.309,281.738,13.184,41.016
20.02,210.449,284.18,16.113,29.297
7.324,208.496,265.137,3.906,56.152
-8.789,208.496,259.277,-4.883,44.922
6.348,209.961,253.418,-4.883,-45.41
28.32,206.055,259.766,3.418,-35.156
14.648,210.449,264.16,7.812,21.973
6.348,212.402,242.676,6.836,55.176
0.488,195.312,229.492,8.301,38.086
3.906,198.73,238.77,7.812,24.902
28.809,206.543,241.699,17.578,46.387
22.949,195.801,227.051,21.484,45.898
11.23,201.172,231.934,13.672,61.035
8.301,205.078,228.516,5.371,47.852
8.301,198.73,234.375,9.766,13.184
19.043,206.055,245.605,16.602,-3.418
16.602,198.73,242.188,19.043,-18.555
9.277,189.453,229.004,16.113,-1.953
2.441,186.523,231.445,13.184,9.277
6.348,187.5,228.516,15.137,-14.16
20.02,188.477,221.68,11.719,34.668
13.184,179.688,223.145,11.719,67.871
8.301,179.688,221.68,14.648,11.23
17.578,185.059,217.773,12.695,12.207
1.953,192.383,188.477,8.789,41.504
4.395,179.199,193.359,18.555,58.594
26.367,173.34,199.219,28.809,36.621
20.02,182.129,201.66,29.785,22.461
0.488,181.152,195.312,20.02,-10.254
2.441,182.617,171.387,8.301,-7.324
21.973,180.664,183.105,11.23,2.441
17.578,182.617,178.711,16.113,36.621
9.766,190.918,189.453,18.066,23.926
6.348,194.824,196.289,4.395,-10.254
-9.766,175.781,182.129,3.906,66.406
12.207,169.922,191.406,8.789,87.402
29.297,182.129,206.055,6.348,66.406
5.859,182.617,213.867,9.766,56.641
-5.859,180.664,198.73,6.836,-0.977
-5.371,179.199,183.594,2.441,24.414
12.695,186.035,203.125,1.953,48.34
17.578,184.082,203.125,3.906,13.184
3.906,177.246,184.57,9.277,18.066
0.488,177.734,181.152,10.742,23.438
-4.883,180.176,177.246,6.836,-20.508
7.324,178.711,179.688,12.695,27.832
22.461,180.176,182.617,20.996,43.457
1.465,172.852,172.363,-0.977,-18.555
4.883,169.922,167.48,3.418,-22.461
15.137,172.363,158.691,21.973,33.203
11.719,173.34,165.527,4.883,20.508
14.16,166.504,161.621,0,13.184
11.23,163.574,155.273,-0.977,56.152
24.414,170.898,164.551,9.766,4.395
29.785,157.715,133.301,13.672,-28.32
9.277,156.738,105.469,5.859,22.461
28.32,156.25,112.305,15.625,51.758
37.109,150.391,113.281,12.207,-16.113
0,156.25,109.863,19.043,39.062
-17.09,157.227,107.91,6.836,47.852
24.902,158.691,108.398,-12.695,7.812
46.387,146.973,110.352,14.648,52.734
11.719,139.648,111.328,40.039,1.465
9.766,152.344,108.398,22.949,30.273
5.371,153.32,100.098,7.812,71.289
6.348,145.02,76.66,21.973,41.016
59.57,140.625,79.59,19.531,43.457
39.062,141.602,84.961,45.41,47.852
-2.441,152.344,62.5,22.949,42.969
13.184,147.461,49.805,1.953,15.625
19.043,140.625,50.293,12.695,-19.043
25.391,145.996,51.27,14.16,40.039
39.551,139.648,30.273,26.855,70.801
52.734,143.555,16.113,31.738,39.551
13.184,141.602,8.301,10.742,29.785
-28.32,128.418,-33.691,-23.438,40.527
-8.789,132.812,-49.805,-8.789,34.668
11.23,127.93,-41.992,20.02,-6.348
8.301,133.789,-65.918,18.066,-14.648
22.461,128.418,-82.52,12.695,20.996
37.598,117.188,-106.445,-3.906,21.484
13.184,114.746,-119.141,-6.836,34.18
-0.977,117.188,-114.746,20.996,85.938
40.527,119.629,-120.117,22.461,70.801
53.711,111.328,-122.07,3.906,58.594
25.879,114.258,-142.09,9.277,52.734
13.672,112.305,-131.348,4.883,44.922
21.973,106.445,-126.465,7.324,14.648
16.113,111.328,-135.254,16.602,-36.621
38.086,114.746,-122.559,32.715,-48.828
60.059,121.094,-137.695,6.348,-2.441
49.805,114.746,-143.066,1.465,45.41
64.941,106.445,-135.254,14.648,51.27
65.918,109.375,-149.902,28.32,58.105
48.828,108.398,-164.551,53.711,49.805
19.043,100.586,-164.551,28.809,28.809
9.766,99.609,-166.504,9.766,32.227
19.043,105.469,-166.016,25.391,41.992
30.273,100.098,-164.551,45.898,34.18
9.766,85.449,-184.57,32.715,41.504
-3.906,89.844,-187.5,13.184,6.836
34.668,102.539,-188.477,12.207,-14.648
55.664,97.656,-189.453,15.137,19.043
54.688,87.402,-190.918,30.273,48.34
52.734,90.82,-207.52,37.109,100.586
6.836,84.961,-224.609,47.363,37.109
-7.324,82.031,-226.074,36.621,-59.57
34.668,85.938,-228.027,8.301,0
55.664,78.613,-232.422,23.438,42.48
43.945,79.102,-244.141,38.086,34.18
31.738,80.078,-256.348,34.18,25.879
17.578,63.965,-258.301,43.457,-9.277
4.883,58.594,-261.23,35.645,-11.719
31.25,68.359,-255.371,32.715,15.625
27.344,67.383,-259.277,35.645,32.227
13.184,63.965,-274.902,23.926,36.621
18.066,64.941,-298.34,14.648,7.324
24.902,51.27,-291.504,10.742,12.207
22.461,41.016,-265.137,27.344,0.977
22.461,51.758,-258.301,23.926,-31.25
21.973,48.828,-253.418,34.668,37.109
19.531,35.645,-255.371,44.434,77.148
52.734,35.645,-265.625,9.766,49.316
49.316,37.598,-256.348,17.578,43.457
10.742,35.645,-246.094,45.41,27.832
5.859,31.25,-242.676,42.48,22.461
11.23,27.832,-243.652,32.715,20.02
39.062,31.738,-240.234,14.16,-10.254
46.387,36.133,-213.379,23.926,15.625
20.996,28.809,-203.613,44.434,42.48
18.555,28.32,-223.145,43.457,60.547
5.371,27.832,-239.258,27.344,76.172
9.766,26.367,-238.77,24.414,58.594
35.156,26.367,-217.773,47.852,82.031
33.691,20.02,-214.355,40.039,65.43
5.371,20.508,-208.984,29.785,44.922
23.926,19.531,-199.219,20.508,68.848
50.293,14.648,-213.867,6.348,26.855
21.973,9.277,-202.637,16.602,34.18
31.738,8.301,-185.059,46.875,39.062
48.34,20.508,-190.43,33.691,-10.742
-3.418,16.113,-183.105,17.578,-16.113
-6.836,-0.977,-166.992,22.461,74.707
28.809,-0.488,-162.109,19.043,88.867
46.875,0.977,-159.668,20.508,44.922
52.246,2.93,-165.527,6.348,5.371
10.742,2.93,-166.504,22.461,-54.688
9.766,1.953,-147.949,39.062,-1.465
43.945,-3.906,-135.254,32.227,41.504
34.668,-11.23,-134.277,34.668,0
27.344,-10.742,-134.277,24.902,26.855
39.062,-6.836,-132.812,18.555,20.996
21.973,-8.301,-140.137,8.789,28.809
13.184,-10.254,-131.836,4.883,66.406
32.227,-4.883,-116.211,21.484,51.758
20.02,-12.695,-116.211,38.574,43.945
37.109,-22.949,-119.629,36.621,15.625
51.758,-16.602,-132.324,-0.977,10.742
16.602,-19.043,-123.047,3.418,17.578
0.977,-26.855,-105.957,31.738,25.391
14.16,-24.902,-109.375,35.156,97.656
19.531,-23.926,-108.887,34.18,34.668
34.668,-20.508,-118.164,5.371,9.766
53.711,-21.484,-124.023,-6.348,101.074
44.922,-27.344,-123.535,18.066,55.664
14.648,-29.785,-129.395,38.574,2.441
-0.488,-26.855,-125,37.109,12.207
5.371,-26.367,-131.348,18.066,20.508
14.648,-29.297,-141.602,14.648,-31.25
41.016,-31.738,-139.648,33.691,-52.734
49.316,-33.203,-149.902,30.273,-12.207
23.926,-34.668,-161.133,11.719,-27.344
10.742,-35.645,-156.25,13.672,9.277
18.555,-33.691,-161.621,13.184,12.695
29.297,-30.273,-160.156,20.508,-7.324
30.273,-35.156,-141.602,30.273,9.277
42.969,-40.039,-133.789,6.348,40.527
31.25,-38.574,-135.742,2.441,19.531
-10.742,-43.945,-128.906,34.668,-2.93
-4.395,-47.852,-118.164,31.25,50.293
32.715,-43.457,-122.07,11.719,108.398
36.621,-39.062,-125.977,-3.906,130.371
9.277,-42.48,-123.535,10.254,78.125
0,-45.898,-135.254,30.273,53.711
21.484,-42.48,-149.414,26.367,63.477
30.273,-40.527,-166.992,24.414,44.434
14.648,-37.598,-191.895,19.043,37.109
7.324,-34.18,-200.195,24.902,-16.602
10.254,-38.086,-210.449,21.973,-22.949
28.809,-39.551,-220.703,15.625,76.172
41.016,-35.645,-229.004,7.812,62.988
29.297,-40.527,-232.91,11.719,3.418
12.207,-52.246,-231.934,26.855,-3.906
0,-57.617,-237.793,31.738,50.781
9.766,-58.105,-247.559,23.438,125
22.949,-50.781,-256.348,17.578,50.293
22.949,-50.293,-264.648,20.02,0
27.832,-57.129,-291.016,19.531,13.672
10.742,-62.012,-334.473,12.207,-16.113
19.043,-62.012,-350.098,12.207,-25.391
41.504,-58.105,-357.422,21.973,32.227
20.02,-62.5,-398.438,18.555,31.25
9.277,-66.895,-446.289,9.766,8.789
11.23,-62.5,-484.375,12.207,12.207
15.625,-63.477,-498.047,15.625,13.184
26.855,-68.359,-500.977,15.137,27.344
20.02,-68.848,-510.254,14.16,10.254
12.207,-69.336,-518.555,16.602,-11.23
3.906,-75.684,-541.504,16.113,31.25
14.16,-75.684,-567.871,20.508,40.039
35.645,-72.754,-582.52,22.949,39.062
20.996,-77.637,-596.68,15.625,51.27
12.207,-83.008,-621.582,16.113,61.035
12.695,-85.449,-652.344,13.184,66.895
11.23,-86.426,-669.434,1.465,56.641
24.902,-87.891,-664.551,8.301,10.742
26.367,-91.309,-664.551,18.066,-37.109
23.438,-91.309,-678.223,13.672,-4.395
16.602,-94.238,-684.082,11.23,25.879
9.766,-92.773,-680.176,6.836,-0.977
23.926,-86.914,-679.199,4.395,5.859
24.902,-87.891,-689.453,13.672,38.574
22.949,-91.797,-701.66,21.484,50.293
23.438,-95.703,-709.473,19.531,83.984
19.043,-94.238,-708.496,19.043,119.141
32.715,-92.285,-690.43,10.742,62.012
37.109,-94.238,-666.016,13.184,17.09
23.438,-98.633,-651.855,25.391,4.883
22.461,-99.121,-643.066,28.809,-14.648
23.926,-95.703,-625.488,26.367,3.418
31.25,-93.75,-594.238,26.367,76.172
43.457,-90.332,-582.031,29.785,99.121
35.156,-86.914,-563.965,28.32,56.641
20.508,-89.844,-531.738,18.555,22.949
13.672,-96.68,-526.855,10.742,7.812
30.273,-101.562,-519.531,10.742,17.09
50.293,-96.68,-504.883,12.695,-3.906
31.25,-95.215,-511.719,10.254,-37.598
20.996,-98.145,-513.184,8.789,-5.371
20.996,-99.609,-508.789,5.371,50.781
25.879,-97.168,-494.629,4.395,69.824
40.527,-91.309,-480.957,6.836,38.574
31.738,-96.68,-471.191,15.137,22.949
20.02,-103.027,-460.449,15.625,47.363
18.555,-96.68,-453.125,4.883,37.109
26.855,-90.332,-431.152,3.906,57.617
39.551,-87.891,-416.016,11.719,26.855
35.156,-86.914,-416.504,13.184,-20.02
29.297,-87.402,-407.227,10.254,21.973
24.902,-89.844,-397.949,11.719,33.203
25.879,-86.914,-380.371,16.113,6.348
36.621,-86.426,-364.746,20.02,11.719
32.715,-84.961,-366.699,19.531,-4.395
23.926,-83.496,-368.652,22.949,50.293
23.438,-79.59,-376.953,19.043,11.719
26.855,-74.707,-377.93,16.113,-23.926
31.738,-70.312,-364.258,20.508,49.316
27.344,-67.383,-357.91,20.996,37.598
17.09,-71.289,-350.586,19.043,45.898
10.254,-73.73,-352.051,14.648,29.297
13.672,-72.754,-359.375,10.254,15.625
33.203,-71.777,-337.891,11.23,-12.207
32.227,-72.754,-320.312,14.16,11.719
17.578,-75.684,-310.059,13.672,76.66
12.695,-76.172,-300.781,14.648,56.641
15.625,-77.148,-296.387,14.648,10.254
30.762,-74.707,-278.809,16.602,39.551
32.715,-74.707,-268.555,19.043,76.172
23.926,-75.195,-254.395,15.625,24.414
18.066,-71.289,-234.863,9.766,-16.602
12.695,-68.848,-227.051,7.324,-24.414
29.785,-68.359,-218.262,14.648,2.93
33.203,-69.824,-209.961,19.043,3.418
24.902,-72.754,-210.938,20.02,2.93
24.902,-75.195,-209.473,24.414,37.598
16.602,-79.59,-213.379,15.137,-8.789
23.438,-82.031,-208.496,12.695,-14.648
28.32,-78.613,-191.895,20.02,42.48
16.113,-78.613,-183.105,15.625,56.641
10.254,-78.125,-174.805,12.207,52.246
3.418,-75.195,-176.758,11.719,-11.23
9.766,-73.242,-169.922,11.23,10.254
25.879,-72.266,-160.156,13.672,43.457
24.902,-72.754,-164.062,16.113,16.602
22.949,-66.406,-158.203,12.207,-1.465
19.531,-62.5,-152.832,9.277,10.254
34.668,-61.035,-146.484,16.113,43.457
53.711,-59.57,-130.859,24.414,29.297
47.852,-60.547,-119.629,23.438,44.434
39.062,-57.129,-101.562,16.602,6.348
25.879,-56.152,-81.543,15.137,-4.883
22.461,-60.547,-72.266,20.02,64.453
32.715,-59.57,-62.5,22.461,43.945
22.461,-58.105,-55.664,23.438,16.113
14.16,-58.105,-44.434,23.926,-34.18
12.695,-52.246,-46.875,20.508,-28.32
17.09,-52.734,-51.27,19.531,18.555
34.18,-56.641,-39.062,24.902,49.316
39.551,-55.176,-28.32,42.48,79.102
25.879,-51.27,-20.02,44.434,102.051
8.301,-41.016,-24.414,16.602,108.887
10.254,-36.621,-36.621,2.93,72.754
22.461,-42.969,-30.762,12.207,-12.695
16.602,-45.41,-24.902,12.207,64.453
6.348,-45.41,-36.133,7.812,90.82
4.883,-43.457,-39.551,5.859,-16.602
7.324,-39.062,-43.945,4.883,0
23.926,-38.574,-44.922,12.207,-34.18
29.785,-38.574,-38.086,24.414,-11.719
25.879,-33.691,-42.969,25.879,18.555
22.461,-31.25,-43.945,23.438,22.461
20.508,-33.691,-50.781,21.973,10.254
33.203,-38.574,-39.551,22.949,-16.602
37.598,-40.039,-26.367,26.367,2.93
25.391,-38.574,-36.621,26.855,-1.953
20.996,-40.527,-42.969,26.855,28.809
18.555,-41.992,-48.34,20.508,99.609
26.367,-43.457,-45.898,19.531,69.824
31.738,-41.504,-34.18,31.738,28.32
23.438,-40.039,-31.25,33.203,14.16
21.973,-38.574,-28.32,27.344,8.301
19.043,-33.691,-35.156,26.855,56.641
30.762,-29.297,-39.551,29.297,-3.906
44.434,-28.32,-36.133,32.227,-27.832
35.645,-32.715,-42.48,30.762,56.152
26.855,-32.227,-41.016,28.809,30.762
20.02,-29.297,-23.926,24.414,30.762
24.414,-33.691,-14.16,20.02,11.23
36.133,-35.156,-6.836,21.484,-14.648
32.227,-35.645,3.906,23.926,21.973
26.367,-33.691,-0.977,23.926,-9.766
26.367,-29.297,-12.207,23.926,42.48
29.297,-28.32,-16.113,23.438,66.895
40.527,-27.344,-8.301,25.879,27.832
43.945,-21.973,-6.348,31.25,45.898
35.645,-18.066,-13.672,30.273,41.504
28.32,-17.578,-22.949,29.785,41.992
33.691,-18.066,-23.438,26.367,21.973
43.457,-18.066,-13.672,18.066,-33.203
38.574,-16.602,-19.043,21.484,-1.953
30.762,-19.043,-24.902,29.785,20.508
27.832,-20.996,-21.484,28.32,18.066
33.203,-17.09,-23.926,24.414,-0.977
49.805,-17.578,-14.648,31.738,-12.207
55.176,-18.066,-8.789,39.551,-34.668
44.922,-20.996,-8.301,38.574,-46.875
36.133,-24.414,-9.277,33.203,-4.883
31.738,-19.531,-20.02,29.297,56.641
38.574,-19.531,-15.137,31.25,68.848
45.898,-19.531,-9.766,36.621,33.203
38.574,-17.09,-11.23,34.18,60.547
25.391,-18.066,-10.254,28.32,38.574
16.602,-20.996,-14.16,21.484,-13.184
30.762,-18.066,-8.301,17.578,55.176
38.086,-13.184,-0.977,24.414,127.93
26.855,-17.09,-8.789,19.043,85.449
19.531,-19.531,-10.254,11.23,19.531
11.719,-16.602,-6.836,13.184,59.57
22.461,-12.207,-1.953,16.602,72.754
31.25,-12.207,2.93,22.461,20.996
20.996,-12.695,-0.488,23.926,41.016
14.16,-13.184,2.93,23.438,17.09
6.348,-14.648,1.465,21.973,3.418
13.184,-13.672,-5.371,23.438,-3.418
28.32,-15.625,-3.906,26.855,-0.488
23.926,-15.625,-5.859,32.715,26.367
19.531,-8.301,-7.812,38.574,-10.254
14.16,-4.395,-18.066,31.738,-22.461
17.578,-2.93,-16.602,28.809,-1.953
35.645,-1.953,-0.977,40.527,12.207
37.598,-4.883,-12.207,43.945,35.645
27.344,-4.395,-18.555,40.527,4.883
17.09,-5.371,-18.066,35.156,28.809
22.461,-5.859,-16.113,29.297,39.062
36.621,-7.812,-10.742,37.109,10.742
32.227,-9.766,-18.555,41.016,7.324
25.391,-6.348,-27.832,35.645,-25.391
20.508,-8.301,-29.297,32.227,26.367
19.043,-10.254,-16.602,20.996,41.504
36.133,-7.324,-5.371,19.043,19.531
36.621,-9.277,-11.23,20.02,25.879
25.879,-9.766,-16.602,19.043,-0.977
18.555,-10.254,-23.926,18.555,49.316
13.672,-13.672,-26.367,15.625,105.957
33.203,-14.16,-21.484,22.949,64.453
36.133,-17.578,-18.066,27.832,72.266
20.996,-18.555,-18.066,23.926,67.383
15.137,-14.16,-26.367,20.996,33.203
12.207,-10.742,-30.762,14.648,31.738
26.367,-10.254,-28.32,16.602,54.688
40.527,-8.789,-28.809,31.738,20.996
27.344,-11.719,-28.809,28.32,-32.715
6.836,-15.625,-23.438,14.648,-6.348
8.301,-16.113,-20.996,17.578,23.926
28.32,-13.672,-19.531,24.902,9.277
32.715,-12.207,-23.438,26.855,25.879
23.438,-9.766,-34.18,28.809,35.156
18.066,-7.812,-19.531,31.738,65.918
11.719,-9.277,-14.16,26.855,36.133
21.973,-7.324,-12.695,25.879,-13.672
34.668,-3.418,-8.301,34.668,22.461
28.809,-2.93,-14.648,36.133,48.828
21.484,-6.836,-7.812,31.738,21.484
14.16,-7.324,-8.301,26.855,-23.926
22.461,-6.836,-3.906,24.902,-44.922
36.133,-4.883,17.578,33.691,-32.715
27.344,-6.836,20.508,37.109,4.395
21.484,-11.719,15.137,32.715,-12.695
17.09,-10.254,5.371,21.484,40.527
20.508,-7.812,1.465,15.137,70.801
36.133,-11.719,13.184,20.996,31.738
30.273,-11.719,14.16,20.02,19.531
22.949,-5.371,20.508,15.137,46.875
20.02,-3.906,16.602,14.648,36.133
24.414,-7.812,12.695,12.695,-1.953
40.527,-7.324,26.855,14.648,-10.742
31.738,-7.324,28.32,19.531,22.949
18.555,-12.695,23.438,20.02,36.621
14.16,-17.09,12.207,16.602,59.082
13.184,-15.137,6.836,12.207,54.688
26.855,-12.695,19.043,19.531,26.367
23.438,-11.719,16.602,25.391,30.762
11.719,-12.695,13.672,20.996,30.762
7.812,-14.16,16.602,8.301,53.223
8.789,-14.648,11.23,0.488,69.824
23.438,-11.23,19.043,8.789,27.832
23.926,-8.789,34.668,15.137,61.035
16.602,-7.812,31.738,13.184,71.777
12.207,-3.418,30.273,13.672,35.156
8.301,-4.883,33.203,12.207,54.688
19.531,-5.859,42.48,12.695,77.148
25.879,-4.883,50.293,20.996,61.523
19.043,-5.371,49.316,23.438,4.395
16.602,-1.465,44.434,20.02,-23.926
14.648,0,37.598,12.207,22.949
26.855,-2.441,34.18,11.719,47.852
37.109,-2.441,36.621,20.02,60.059
22.461,-2.441,27.832,19.043,43.457
11.23,-2.93,25.879,10.742,35.645
5.371,-5.371,21.973,-1.953,51.758
11.719,-10.254,21.973,-5.371,44.434
25.879,-9.766,32.227,5.859,44.922
26.855,-10.742,27.832,11.23,-5.371
18.555,-9.766,25.391,8.789,20.02
9.277,-5.859,19.531,3.906,51.27
19.043,-8.789,20.02,4.395,32.227
34.668,-10.742,21.484,7.812,56.641
29.297,-8.301,12.207,11.23,36.133
24.902,-8.301,24.902,13.184,34.668
16.113,-6.348,32.227,14.648,32.715
16.602,-3.418,29.297,16.602,8.301
32.715,-0.977,31.738,23.438,55.176
30.762,-1.465,29.297,32.227,16.113
23.926,-0.488,42.48,33.691,32.227
15.137,-1.953,40.039,22.461,60.059
20.508,-4.883,33.203,15.625,13.184
35.156,-6.348,36.621,21.973,51.27
28.809,-5.371,24.414,21.973,19.531
21.973,0,19.531,21.484,24.414
14.16,0.488,16.602,20.508,74.707
12.695,1.465,14.16,20.02,71.777
31.738,0.488,18.555,31.738,47.363
31.738,-2.441,12.695,38.086,45.41
21.973,0.488,9.766,39.062,20.996
18.555,1.953,11.719,33.203,-31.25
21.484,-0.977,13.672,24.902,5.371
39.062,-0.488,12.695,22.949,1.465
41.016,0.977,8.789,24.902,7.324
32.227,0.977,1.465,24.902,49.316
24.902,1.953,-5.371,20.02,41.992
19.043,-0.488,-5.371,14.16,59.57
30.273,-2.93,0.488,14.16,-0.977
29.785,-1.953,6.836,19.043,-17.09
16.602,0.977,13.184,22.461,1.465
14.16,2.93,11.23,21.484,0.488
9.277,2.93,0.488,7.812,-23.926
19.043,3.906,15.137,6.348,-75.684
31.25,3.418,20.996,20.02,-6.836
25.391,1.953,3.418,21.484,-13.672
19.043,3.906,0.488,21.484,4.883
12.207,9.766,-15.137,15.137,55.176
23.438,9.766,-13.672,17.578,3.906
38.086,10.254,17.09,28.32,36.621
32.715,10.742,16.113,26.367,50.293
22.461,10.742,10.254,20.02,-25.879
9.277,10.742,7.812,15.137,-45.41
17.578,12.695,13.672,12.207,10.254
30.273,11.23,14.648,16.113,-15.137
22.949,10.254,8.789,17.09,6.348
16.602,12.207,5.371,16.113,100.098
11.719,8.789,-11.719,12.207,29.785
20.02,8.789,-15.625,12.207,-0.977
35.156,13.672,-12.207,17.09,18.066
29.785,11.719,-4.395,17.578,25.391
28.809,13.184,1.465,17.09,78.125
25.391,12.207,-7.324,10.254,19.531
24.902,10.742,-2.441,4.883,9.766
43.457,13.184,1.953,17.09,32.227
39.062,11.719,2.93,22.461,-40.527
20.508,10.254,10.742,15.137,1.953
10.742,10.742,13.184,11.23,11.23
13.672,12.695,17.578,12.695,-3.418
30.273,12.207,20.996,19.531,39.062
39.551,11.719,11.719,22.949,86.914
29.297,9.766,3.418,18.066,55.664
19.043,7.812,3.906,14.16,34.668
22.949,5.371,10.254,11.23,81.543
35.156,4.883,14.16,8.789,49.805
39.062,11.719,12.695,18.066,55.664
32.715,9.277,12.695,20.996,72.266
24.414,3.418,9.277,13.184,14.16
23.926,6.836,20.02,10.742,17.578
37.598,8.301,35.645,14.648,63.965
38.086,8.301,36.133,14.648,53.223
24.414,9.277,32.227,11.23,30.273
19.043,7.812,23.926,11.719,18.066
20.02,6.348,8.301,6.836,0.488
33.203,9.277,10.254,8.301,27.832
38.086,6.836,23.438,10.254,36.133
24.414,2.93,19.531,7.324,37.109
15.137,5.371,14.16,8.789,15.625
10.742,6.836,8.789,2.441,8.301
22.949,10.254,18.555,0.488,30.762
33.691,11.719,28.809,7.324,-12.695
26.855,13.184,26.367,9.277,-79.102
19.043,12.695,24.414,5.371,-69.336
8.301,11.23,25.879,4.883,36.621
18.066,10.742,38.574,13.672,74.707
38.574,11.719,48.34,21.973,32.715
33.691,10.742,42.48,22.949,34.18
26.855,13.184,32.715,24.902,-19.043
20.996,9.277,20.996,24.902,-44.922
21.484,3.906,24.414,18.066,37.109
35.645,9.277,34.668,22.949,94.727
31.738,9.766,27.832,26.367,77.148
21.973,9.766,16.602,23.926,98.633
13.672,8.789,15.137,23.438,72.266
23.438,8.301,29.785,22.949,-4.883
44.922,12.207,41.016,25.879,31.738
39.062,15.137,34.668,28.32,31.738
26.855,13.184,35.156,28.32,-13.672
20.508,13.184,39.551,19.531,-5.371
16.602,14.16,39.551,10.742,18.066
29.297,13.184,34.18,17.09,25.391
34.18,13.672,26.855,19.043,12.695
22.949,11.719,25.879,16.113,3.906
20.996,9.277,25.391,15.625,80.078
22.949,12.695,23.438,9.277,114.258
31.25,15.137,36.133,10.742,56.641
33.203,13.184,36.621,17.578,36.133
23.926,18.555,24.414,19.531,20.02
17.09,20.508,17.578,19.043,-23.438
14.648,17.578,21.484,16.602,-13.672
29.297,18.555,32.715,21.484,23.926
34.668,19.043,31.738,28.32,18.555
25.391,14.648,32.227,23.926,-35.645
15.625,9.766,26.855,15.625,-40.527
8.789,8.789,9.766,7.324,9.766
26.367,10.742,23.926,8.301,27.832
37.109,13.184,44.434,15.137,36.133
23.926,13.672,37.109,12.207,49.805
13.184,13.184,30.273,9.277,58.594
4.395,13.672,25.879,10.254,74.707
12.207,11.719,20.02,10.254,52.734
24.414,11.719,22.949,15.137,-17.09
16.113,14.16,31.738,18.066,1.465
9.277,14.648,37.598,14.648,65.918
5.859,17.578,24.902,6.836,30.273
10.742,16.113,25.391,3.418,-8.301
23.926,13.672,41.016,10.254,20.508
20.02,18.066,35.645,14.16,31.738
14.16,18.555,28.809,14.648,-22.949
10.742,15.625,29.297,13.672,-24.902
13.672,16.602,40.039,6.348,32.227
28.32,15.137,50.781,10.742,93.75
23.438,16.113,50.781,17.578,58.594
13.672,14.16,52.246,18.555,51.27
13.672,12.207,46.875,18.555,83.496
19.531,14.648,45.41,17.09,39.551
39.551,14.16,54.199,24.902,95.215
41.016,17.09,54.688,25.879,98.145
27.832,16.113,61.035,19.043,53.223
17.578,9.766,54.199,11.719,62.5
19.531,8.789,42.969,2.93,41.992
32.227,11.23,50.293,8.301,39.551
34.18,15.137,45.898,19.531,58.594
21.973,16.113,39.551,16.602,91.797
11.719,14.648,29.785,8.301,48.828
12.207,15.625,29.297,9.277,-12.207
27.344,15.625,36.133,14.16,30.273
32.227,13.184,33.203,18.555,25.879
23.926,12.207,34.18,17.578,30.273
19.531,15.625,29.785,11.23,95.703
20.02,18.555,17.09,9.277,59.57
38.086,18.066,24.902,16.602,31.25
38.086,20.508,34.18,20.02,27.344
18.555,20.996,33.691,18.066,-21.973
17.09,23.438,29.297,19.043,-98.633
18.555,24.902,29.297,16.602,-97.656
26.367,18.555,35.645,16.113,-6.836
38.086,18.066,36.133,23.926,50.293
27.832,20.508,24.414,23.438,13.184
16.602,20.996,8.301,17.578,1.953
12.207,21.973,4.395,14.16,24.902
21.973,21.484,16.113,16.602,-2.441
37.598,23.926,20.508,22.461,-10.254
29.785,22.461,10.742,19.531,8.789
16.602,19.531,7.812,15.625,62.5
9.766,19.531,1.953,15.137,50.293
18.066,21.973,8.301,17.578,-64.941
29.297,22.461,23.438,20.02,-75.684
24.902,20.508,25.391,20.02,-8.301
19.531,19.531,24.414,18.555,19.531
13.184,21.484,22.461,14.648,52.246
14.16,22.461,25.879,13.672,41.504
24.902,20.996,28.809,19.043,78.613
25.391,20.02,24.902,23.438,87.891
20.02,22.949,24.414,23.926,66.895
13.184,23.926,15.137,18.066,49.805
20.508,22.949,14.648,14.16,-15.137
34.668,25.391,29.297,17.09,14.16
26.367,23.926,28.809,20.508,-4.883
18.555,18.066,25.879,25.879,-45.41
7.324,17.09,23.438,22.461,66.406
4.395,20.02,25.879,16.602,65.43
27.344,22.461,37.109,23.926,44.922
24.414,22.949,40.527,25.391,38.574
9.766,22.949,37.109,21.973,20.996
8.301,26.367,35.156,20.02,10.254
6.348,25.391,29.785,12.207,38.086
19.531,20.508,25.879,14.16,33.691
27.832,17.578,17.09,22.461,-18.066
17.578,19.043,9.766,22.461,-16.113
8.301,19.531,8.301,16.602,56.152
4.395,22.949,15.137,11.23,89.355
23.438,32.227,33.691,17.09,45.898
27.344,32.227,39.551,19.043,30.273
13.672,28.809,31.25,14.16,17.09
12.695,29.785,23.926,14.648,15.625
11.23,32.715,17.09,8.789,52.734
28.809,32.227,12.207,7.324,3.418
42.48,26.855,14.648,14.16,-14.16
35.156,24.414,20.996,19.531,55.176
25.879,27.344,19.043,22.949,27.344
19.531,28.32,8.789,15.137,27.832
23.926,27.832,21.484,10.742,45.898
32.227,30.762,40.039,17.09,46.875
21.973,32.715,40.527,18.555,35.645
9.277,28.32,34.668,16.602,7.324
4.395,22.461,34.18,10.254,0.977
8.789,19.043,42.969,7.324,15.625
21.973,13.672,39.551,13.184,31.738
22.461,12.695,39.551,16.602,4.395
14.16,12.207,43.945,12.207,3.418
6.348,12.695,27.832,5.859,3.418
13.184,17.578,25.391,6.836,34.668
31.738,18.066,45.41,16.602,69.336
27.832,12.207,39.551,20.508,10.254
19.043,12.695,29.297,17.09,4.395
18.555,17.09,31.25,16.113,12.695
20.02,20.02,35.156,15.625,13.184
32.227,22.461,38.574,18.066,71.289
30.273,22.461,40.039,20.996,38.574
16.602,20.02,43.945,22.949,-31.25
11.23,16.602,42.48,18.066,0
14.16,18.066,41.504,12.695,58.105
29.297,18.555,45.41,20.02,12.695
28.32,14.648,47.363,20.996,41.504
19.531,14.16,39.551,16.602,85.449
17.09,15.137,32.715,13.184,-0.488
16.113,20.508,45.898,9.277,46.875
28.32,26.367,61.035,16.602,113.281
29.297,26.855,63.965,22.949,59.57
10.742,26.855,60.059,14.648,5.859
0.488,27.344,56.641,10.742,-10.742
0,24.902,54.688,13.184,27.832
11.719,27.344,56.152,18.066,40.039
19.043,25.391,59.57,23.438,13.672
13.672,20.02,53.223,25.879,45.41
11.23,18.555,46.387,28.809,76.172
10.742,20.996,31.738,20.508,20.996
28.32,23.926,34.668,20.02,13.672
39.062,20.996,41.016,34.668,77.148
20.02,19.531,34.668,25.391,62.012
0.488,19.531,42.48,3.906,-6.348
0.977,16.113,44.922,0.488,31.25
17.09,14.648,40.527,5.859,80.566
23.926,15.137,36.133,5.371,22.461
17.09,19.531,31.738,7.812,-1.953
12.207,21.484,23.926,9.277,42.969
10.254,21.973,16.113,7.324,11.719
19.531,23.438,30.273,7.324,2.93
36.133,20.02,41.992,12.207,-4.395
30.273,16.113,40.527,18.066,-38.086
20.02,16.113,35.645,15.625,28.809
14.648,16.113,27.344,10.742,67.871
17.578,18.555,35.156,12.207,-0.977
31.25,19.531,43.945,13.672,10.742
29.297,18.555,37.109,14.648,40.039
17.578,18.066,34.668,17.09,20.508
9.277,20.02,28.32,13.184,20.996
18.555,22.461,23.926,7.812,35.645
32.715,17.578,38.574,14.16,13.672
24.902,16.113,26.855,21.973,3.418
11.719,19.043,6.836,20.996,36.133
1.953,18.066,6.348,15.137,14.648
5.371,16.602,10.742,12.695,-5.859
20.508,17.09,18.555,18.555,19.531
20.996,20.508,18.555,21.973,10.742
18.555,24.414,15.137,25.879,25.391
17.578,20.996,7.324,26.855,10.742
15.137,17.578,6.348,21.973,7.812
35.156,19.043,14.16,23.926,26.855
39.062,17.09,15.137,26.367,21.484
23.438,12.695,13.184,21.973,-12.695
14.648,11.23,12.207,17.578,-13.672
10.254,12.207,15.137,15.625,20.02
20.02,14.648,21.973,17.09,12.695
24.414,14.648,22.949,23.438,20.02
17.09,12.695,18.066,24.414,36.133
14.16,10.254,10.742,19.043,-17.09
12.207,6.836,11.23,20.996,-8.789
20.508,7.812,17.09,23.926,54.688
28.32,15.137,19.531,24.414,47.363
27.344,19.531,22.949,30.273,10.254
21.484,20.02,24.414,34.18,-35.156
8.789,19.531,14.16,25.879,20.996
17.578,23.438,20.996,20.02,46.875
29.785,23.438,39.062,23.926,11.719
19.531,20.996,34.18,24.902,33.691
7.324,22.461,29.297,21.973,38.574
-0.488,19.043,28.32,16.113,34.668
1.953,18.555,31.738,8.301,-0.488
13.672,21.484,35.645,6.836,-17.578
7.324,20.02,35.645,7.812,45.41
-0.488,20.02,37.109,4.883,69.824
-5.859,19.043,33.203,-11.23,43.945
-9.277,13.184,38.086,-23.438,30.273
5.859,10.254,50.781,-9.766,69.824
6.836,16.113,42.48,-3.906,41.016
-18.066,18.555,36.133,-21.973,10.254
-34.668,14.648,35.645,-36.621,46.387
-33.691,17.578,40.039,-35.645,9.766
-24.414,20.02,51.27,-30.273,-21.973
-25.879,18.555,51.27,-29.785,35.645
-35.645,19.043,45.41,-33.691,65.918
-45.898,24.902,47.363,-40.039,41.504
-56.641,25.879,56.152,-48.828,57.129
-47.363,25.391,61.523,-48.828,6.836
-46.875,24.414,62.988,-47.363,-23.438
-55.664,21.484,64.941,-53.711,-6.836
-61.035,20.02,56.152,-62.5,22.949
-67.383,20.02,47.363,-72.754,53.223
-60.059,18.555,48.828,-75.195,60.059
-53.711,18.066,42.48,-70.801,-38.574
-57.617,20.996,40.039,-68.359,-62.5
-69.336,21.973,46.387,-75.195,-32.227
-76.172,26.367,58.105,-83.008,-10.742
-64.453,28.809,63.965,-79.102,17.578
-56.152,26.367,54.688,-72.754,-10.742
-57.617,27.344,45.898,-64.941,-51.758
-64.941,26.367,38.574,-64.453,-20.996
-72.266,22.949,34.18,-73.73,46.875
-49.805,22.461,41.016,-65.918,80.078
-33.203,18.066,50.781,-50.781,80.078
-43.457,15.625,45.41,-46.875,37.109
-43.945,20.02,26.367,-44.434,76.172
-34.668,24.414,16.602,-41.504,72.266
-24.414,22.461,19.043,-36.133,47.852
-20.996,17.578,19.531,-29.785,53.711
-20.996,20.02,14.648,-21.484,82.52
-16.602,21.973,9.766,-8.789,109.375
-22.949,21.484,4.883,-17.578,46.387
-12.695,23.438,16.113,-18.066,-5.371
19.531,25.879,33.691,4.883,-11.719
20.02,23.926,32.227,8.301,51.758
10.254,20.02,23.926,6.836,47.852
6.348,17.09,21.484,11.719,-0.488
12.207,14.16,16.602,19.531,13.672
38.574,15.625,16.113,32.715,34.668
46.387,20.508,20.508,42.48,45.41
34.18,22.461,23.438,42.969,66.406
24.414,21.973,20.508,38.574,29.297
33.203,21.973,15.625,42.48,6.836
56.641,22.461,20.02,51.758,17.09
58.105,21.484,16.602,58.594,-40.039
49.316,19.043,6.836,61.035,-1.953
49.316,19.043,0,54.688,6.836
52.246,21.484,-2.441,50.293,8.789
64.941,23.438,-0.488,52.246,25.879
64.453,27.832,2.93,53.223,49.316
57.129,26.367,-0.488,59.082,78.613
53.711,23.926,-4.395,61.035,28.32
51.758,24.902,-1.465,58.105,23.438
66.406,24.902,6.836,62.988,17.09
70.801,23.926,12.207,68.848,13.672
58.105,27.832,9.277,69.336,18.066
51.758,30.273,14.16,67.871,30.273
49.316,30.273,19.043,64.453,15.137
64.453,31.25,17.578,66.406,0
72.754,25.879,28.809,71.289,22.949
57.617,21.973,36.621,66.895,37.109
50.781,27.832,27.832,63.477,37.109
47.363,31.25,17.578,55.176,10.742
55.664,27.832,26.855,50.293,36.621
69.824,27.832,39.551,61.035,69.824
64.941,29.297,41.504,62.012,49.805
53.223,30.273,39.062,56.641,62.012
47.852,30.762,30.273,51.27,89.355
54.688,27.832,25.879,49.316,47.852
65.43,29.785,26.855,52.734,-19.531
59.57,29.297,22.461,56.152,50.781
52.246,27.832,18.066,58.594,98.633
48.828,32.227,20.508,54.688,40.039
57.129,33.203,21.973,52.246,-15.625
72.754,30.273,18.555,56.152,-48.828
65.918,25.879,8.789,59.082,-47.363
51.758,24.902,1.953,51.27,-14.16
42.969,28.809,0.977,43.457,40.039
46.387,33.203,3.418,44.434,19.531
60.059,33.203,2.93,48.34,29.297
58.594,33.203,8.789,54.199,8.789
52.246,30.762,8.789,56.641,7.324
41.016,24.414,-9.277,45.41,57.129
41.504,25.879,-4.883,35.645,65.43
60.059,32.227,6.836,38.574,59.082
59.082,32.715,-1.465,42.969,26.855
51.27,31.25,-2.441,45.41,-37.598
48.34,29.297,2.441,41.016,-14.16
46.387,26.367,6.348,37.109,58.594
59.082,25.879,8.789,42.969,45.898
64.453,28.809,1.465,49.316,-1.953
52.734,28.32,-1.465,50.293,-25.879
39.551,26.855,0.488,46.875,-21.973
34.668,25.391,0,41.992,14.16
42.48,25.879,8.789,43.457,53.223
45.898,26.855,8.301,48.828,24.414
36.133,27.344,1.953,51.758,68.848
26.367,28.809,-5.371,50.781,55.176
19.531,27.832,0.488,42.48,1.465
33.203,28.809,13.184,42.969,30.762
44.434,30.762,9.766,44.922,31.25
32.227,28.32,9.277,41.504,20.02
22.949,26.855,12.207,41.016,10.742
16.113,30.762,9.766,32.227,-11.719
23.438,28.32,9.766,27.832,-15.137
38.574,24.414,9.766,37.598,69.824
30.762,22.461,10.254,41.992,70.801
26.855,20.02,3.418,42.969,11.23
22.461,16.113,-5.371,37.598,-21.484
25.391,18.066,2.93,36.133,29.785
39.551,22.949,10.742,43.945,47.363
32.227,23.926,13.672,39.062,-9.277
23.926,23.438,17.578,29.297,3.418
17.09,25.391,19.043,25.391,10.254
20.02,29.297,20.508,22.949,0.977
35.156,31.25,30.762,23.438,15.625
26.367,28.32,37.109,26.855,-24.902
16.602,26.855,33.691,24.414,55.664
14.16,26.367,25.879,19.531,90.332
18.066,25.879,35.156,21.484,-15.137
35.645,26.855,41.016,30.273,-23.438
38.574,24.902,33.203,33.691,-21.973
27.832,22.461,34.668,24.902,15.137
11.719,21.484,27.832,13.184,27.832
3.418,19.043,26.367,9.277,50.781
19.043,20.02,36.133,11.23,98.633
21.484,23.438,33.203,10.254,98.145
9.766,23.926,24.414,8.789,22.949
4.883,26.855,17.09,0.977,-3.418
2.441,31.25,22.949,-9.277,44.922
22.949,35.156,29.785,0.977,25.391
28.809,31.738,27.832,10.254,-19.531
15.137,25.879,27.344,9.766,39.551
8.301,28.809,11.719,6.836,53.223
4.883,33.691,8.789,4.883,43.457
20.508,32.227,17.09,8.789,51.27
25.391,30.273,17.578,7.324,13.672
13.672,27.832,11.719,3.418,57.617
11.719,26.855,5.371,-0.977,58.105
8.789,29.785,11.719,-4.395,85.938
21.973,34.668,18.066,-1.465,61.035
36.621,31.25,16.602,5.859,-3.418
34.18,27.832,19.531,11.23,40.527
32.227,29.785,12.695,12.695,56.641
28.809,28.809,9.766,10.742,23.438
36.133,26.367,15.137,9.277,17.09
46.387,27.344,14.16,15.625,-2.441
43.457,27.344,7.324,20.996,-24.902
37.598,28.809,0.488,22.461,7.324
30.762,34.18,-5.859,17.09,8.789
35.645,33.691,-4.395,14.648,18.555
45.41,30.273,8.301,19.043,53.711
39.551,34.18,13.184,15.625,29.297
29.785,35.645,10.742,10.254,37.598
19.043,34.18,5.371,1.953,60.059
21.484,31.738,10.742,0.488,24.414
37.109,25.879,19.531,7.812,25.879
33.691,26.367,20.02,11.719,18.066
21.484,26.855,23.926,11.719,15.137
11.719,26.367,20.508,8.301,33.691
9.766,25.391,20.508,12.207,16.113
20.508,25.391,27.344,20.996,28.32
20.02,28.32,21.484,24.414,69.824
14.16,27.832,15.625,26.855,40.527
11.23,25.391,14.648,21.484,-16.113
16.113,24.902,21.484,17.09,-27.344
44.434,28.32,27.832,32.715,15.625
46.875,29.297,22.461,43.945,73.242
17.09,25.391,15.625,32.227,83.984
5.371,24.902,11.719,20.02,41.016
4.395,28.32,14.16,17.578,37.598
12.695,27.832,12.207,16.113,37.109
19.531,28.32,5.859,17.578,2.93
13.184,27.344,9.766,14.648,39.551
9.766,24.414,9.277,14.648,21.484
8.789,25.879,5.371,13.184,-31.25
21.973,24.902,11.719,16.602,13.672
28.809,23.926,9.277,22.461,49.316
20.02,23.438,7.812,20.996,41.016
14.648,22.461,9.766,19.043,41.504
6.348,21.973,6.836,13.672,42.48
18.555,23.926,21.484,17.09,13.672
35.645,23.438,35.156,28.809,17.578
30.273,18.555,26.367,29.785,83.984
20.508,13.672,16.602,23.926,90.82
11.719,14.16,22.949,21.484,5.859
19.043,13.184,32.715,21.484,31.738
31.738,14.648,34.668,29.297,108.398
26.855,19.043,37.109,38.086,87.402
19.043,20.508,41.504,33.203,35.156
11.719,21.973,39.551,24.414,28.809
18.555,21.484,37.598,23.926,0.488
37.109,16.602,41.016,29.297,-16.113
32.715,16.602,38.086,31.738,26.367
22.949,19.043,30.273,32.227,34.18
18.555,22.949,18.555,23.438,27.344
21.484,27.832,17.09,22.461,9.277
31.25,26.855,29.785,27.832,22.461
25.391,24.902,31.738,23.926,34.18
17.09,22.461,27.344,21.973,16.113
7.812,19.043,20.02,13.672,-18.555
13.672,19.531,27.344,8.301,-12.207
35.645,21.484,35.156,17.09,46.875
32.715,22.949,27.832,16.602,8.789
22.949,25.879,36.621,15.625,-5.859
12.207,20.02,34.18,16.602,36.133
10.742,18.555,24.902,17.578,72.266
31.738,24.902,22.949,22.461,68.359
38.086,28.32,29.785,26.367,44.434
30.762,29.297,33.203,30.273,83.984
25.879,28.809,25.879,25.879,98.633
24.414,30.762,29.297,20.508,1.465
41.504,32.715,39.551,22.949,-46.875
54.688,29.785,44.434,29.297,-33.203
41.992,26.855,34.18,28.32,-13.184
26.855,23.926,17.578,18.066,22.461
25.879,22.461,20.508,16.113,36.621
41.016,21.973,27.344,21.973,4.883
48.34,20.508,26.855,25.879,-61.035
40.527,21.484,34.18,27.344,-1.465
36.133,21.484,24.414,28.809,36.133
27.344,20.508,17.09,22.461,73.242
34.18,19.043,20.02,19.531,90.332
41.992,21.484,27.344,23.926,62.5
34.18,25.391,37.598,28.32,25.879
30.762,27.344,37.109,26.367,11.719
28.32,27.344,42.969,19.043,3.906
41.016,27.344,53.711,18.555,22.461
50.293,26.367,47.363,18.555,47.852
37.109,25.879,41.016,16.602,13.672
31.25,29.297,41.504,15.625,7.324
26.855,26.855,33.691,7.324,33.203
31.25,23.438,37.598,6.836,14.648
42.969,22.949,44.434,12.695,52.246
36.621,22.949,40.039,11.719,84.961
30.762,26.367,41.504,14.16,51.27
27.832,29.297,44.434,15.625,14.16
24.414,30.762,47.852,13.672,25.879
34.18,27.344,45.41,13.184,9.766
31.25,21.484,41.992,17.09,-25.879
25.391,25.879,41.016,20.996,-10.254
21.484,26.855,37.598,16.602,-1.953
27.344,23.926,43.457,17.578,27.832
50.293,24.902,45.898,25.391,27.832
49.316,25.879,41.016,27.344,9.277
35.156,27.832,39.062,22.949,65.918
30.273,28.809,36.133,19.043,50.781
29.785,26.855,38.086,18.066,7.812
38.574,23.926,43.945,20.996,21.973
39.062,22.949,39.551,24.414,47.363
28.32,20.996,46.875,24.902,83.496
22.461,21.973,46.875,20.996,27.344
23.438,24.414,40.039,21.484,-58.594
37.109,21.973,39.062,23.926,-79.59
37.598,21.973,25.879,23.438,-9.277
24.414,24.414,22.461,27.344,55.176
14.16,25.879,28.32,29.785,42.969
10.742,25.879,25.391,21.973,57.129
25.879,22.461,14.648,20.02,14.648
30.762,21.484,25.391,27.344,25.391
23.438,24.902,28.32,30.762,34.18
21.973,29.785,14.648,31.25,10.254
19.043,28.32,15.625,24.414,27.832
26.855,26.855,30.762,23.926,21.973
38.574,32.227,37.109,31.738,43.457
30.762,34.668,40.527,33.691,79.102
21.484,32.227,40.039,28.32,44.434
13.672,30.273,34.18,23.438,18.555
20.508,30.273,32.227,22.949,-5.371
33.691,28.809,34.668,26.855,19.531
26.367,29.297,37.109,27.344,-23.926
20.02,30.762,35.645,22.949,-2.93
12.695,29.297,28.809,15.625,95.215
13.672,22.461,27.832,12.207,47.363
25.391,17.09,31.25,16.113,-4.395
19.043,20.508,21.973,19.043,-10.742
9.766,24.414,15.137,21.484,30.273
4.395,27.344,10.742,17.09,14.648
15.625,31.738,18.555,15.625,32.715
36.621,30.273,31.738,21.484,52.734
29.785,25.879,21.484,23.438,-19.531
18.066,25.879,11.23,22.461,-33.691
12.695,26.367,5.859,22.461,20.02
12.695,24.414,6.836,23.926,25.391
32.715,25.391,13.672,26.367,0.488
32.227,27.832,22.461,29.785,5.859
15.625,29.785,18.066,27.344,11.719
13.672,30.273,3.906,19.043,26.367
17.09,30.273,5.371,20.508,-28.809
31.25,30.273,8.789,23.438,-14.16
31.25,27.832,7.324,24.414,38.574
22.461,28.809,5.859,25.879,1.465
19.043,29.297,0.488,18.555,-25.391
16.602,27.344,9.277,12.207,23.926
32.715,27.832,22.949,14.648,68.848
39.551,27.832,17.578,19.043,62.012
31.738,21.973,12.695,22.949,83.984
23.438,19.531,9.766,23.438,49.805
14.648,20.996,13.184,17.578,-10.742
24.902,25.879,26.367,20.996,27.344
34.668,27.832,26.367,26.855,41.992
28.809,24.414,11.719,24.414,-11.719
23.438,21.973,4.395,23.926,-12.695
19.043,21.484,7.812,18.555,10.254
27.832,21.973,16.113,13.184,-0.488
36.621,25.391,28.32,17.578,69.824
22.461,24.414,24.414,21.973,111.328
11.23,20.02,19.043,15.625,56.152
10.742,24.902,22.949,2.93,41.504
21.484,25.879,34.668,4.395,77.637
35.156,23.926,37.109,14.16,35.156
29.297,26.855,32.715,18.555,-24.902
21.973,28.809,24.902,21.484,-33.691
18.066,26.367,20.02,18.066,0.488
19.531,19.043,18.066,14.648,7.324
30.762,18.066,18.555,17.578,7.812
27.344,20.996,25.879,20.02,-9.277
20.996,20.996,26.855,19.531,27.344
18.066,22.949,14.648,13.672,54.199
21.973,25.879,14.648,13.672,15.137
34.668,23.926,24.414,22.461,8.789
31.25,23.438,32.227,24.902,29.785
20.996,27.344,33.203,23.926,54.199
12.695,27.344,23.438,19.531,43.457
16.602,29.297,31.738,18.066,41.504
37.598,32.715,46.875,25.879,37.598
35.645,31.738,41.504,27.832,53.711
23.926,30.762,36.621,25.391,60.059
19.043,25.879,32.227,22.949,53.711
14.16,21.484,39.551,20.02,33.691
29.785,22.461,43.945,25.391,-10.742
36.133,22.949,41.016,30.273,49.805
22.461,21.484,35.645,32.227,111.816
11.23,20.02,17.578,23.438,55.664
5.371,16.113,20.996,13.184,46.387
17.578,15.137,30.273,14.16,60.547
26.367,19.043,23.438,22.461,-10.254
16.113,18.066,17.578,22.949,-37.109
11.23,18.066,12.207,16.602,35.156
9.277,20.02,15.137,15.625,71.289
20.508,19.043,20.02,16.113,14.16
32.227,18.555,20.508,24.902,7.812
26.367,21.973,22.949,32.715,77.148
20.996,22.461,26.855,27.344,45.898
19.531,18.555,29.297,20.02,-22.461
32.227,16.113,32.227,20.508,43.457
40.039,20.02,31.25,25.391,26.855
30.273,23.438,35.645,24.902,17.578
26.855,24.414,30.273,21.484,71.777
20.02,24.414,16.602,13.672,-12.695
26.855,25.391,13.672,15.137,-61.523
39.062,25.879,4.883,23.926,36.621
31.738,27.344,3.418,24.414,58.594
29.297,25.391,3.418,20.508,1.953
25.879,22.461,0.488,17.09,21.484
28.32,23.926,10.254,14.648,50.293
38.574,20.508,23.926,16.113,49.316
33.203,22.461,27.832,18.555,50.293
25.879,23.438,20.996,16.602,23.926
19.531,20.996,10.254,10.742,23.438
19.531,21.973,19.531,10.254,43.945
31.25,23.438,31.25,15.137,28.809
27.344,25.879,20.508,15.625,-33.691
19.043,26.855,11.23,17.09,-33.203
14.16,23.926,11.719,12.207,56.152
12.207,22.461,16.602,6.348,89.355
25.879,20.996,27.832,12.207,73.242
26.855,18.066,31.738,17.09,59.082
17.09,20.02,27.832,18.066,66.895
12.695,20.996,23.438,11.719,63.965
14.648,22.949,27.832,10.742,12.695
31.25,27.344,32.227,21.973,-40.527
38.086,28.809,36.133,29.297,-52.734
29.785,26.855,37.109,30.762,33.203
24.902,27.832,26.367,27.832,30.273
27.344,30.762,23.438,23.926,-14.16
40.527,32.715,24.414,24.902,7.324
43.457,32.227,18.555,29.297,-17.09
33.203,32.227,11.719,28.809,-1.465
23.438,31.25,11.23,22.949,39.551
17.09,31.25,15.625,18.066,47.363
31.738,35.156,16.602,22.461,40.527
39.551,34.18,17.09,27.344,27.344
24.902,27.344,14.16,25.879,13.184
17.09,22.949,16.602,24.414,38.086
15.625,25.391,23.926,20.508,87.891
27.832,24.414,23.926,23.438,100.098
35.645,22.461,24.902,28.809,98.633
26.855,23.438,28.32,28.32,54.199
17.09,20.996,20.508,20.996,-15.137
7.812,24.414,14.16,9.766,2.93
14.16,25.879,24.414,12.695,41.016
29.297,25.391,25.391,22.461,36.621
19.043,26.367,20.996,15.625,13.672
6.836,22.949,15.625,12.207,30.273
0.488,20.508,11.23,6.348,72.754
3.906,20.996,16.602,3.418,68.848
15.137,20.02,18.066,10.254,45.898
16.602,20.02,20.02,8.301,46.875
11.23,19.531,14.16,6.836,4.395
-1.953,20.996,10.742,4.395,14.648
5.859,23.926,17.578,4.883,20.996
25.879,23.438,17.578,12.695,-12.207
24.902,21.973,18.066,20.996,34.18
20.02,21.484,16.602,22.949,43.945
9.766,26.855,15.137,14.16,39.551
6.348,29.297,26.367,7.324,-8.301
22.949,28.32,37.109,12.695,2.93
26.367,29.785,37.598,18.555,19.531
18.555,30.273,37.598,18.066,4.395
19.043,28.809,30.762,14.648,28.809
26.855,28.809,23.438,18.555,60.547
36.621,28.32,27.832,23.926,57.617
34.18,26.855,30.273,24.902,29.785
26.855,26.855,22.461,27.832,49.316
25.391,26.855,13.184,22.949,-9.766
24.414,29.297,17.578,14.16,11.23
35.156,31.25,24.902,19.531,62.012
42.48,28.809,23.438,28.32,43.945
30.762,26.855,18.555,25.879,50.781
17.578,23.926,17.09,19.531,39.551
10.254,21.484,19.043,20.02,-9.277
26.367,22.949,17.578,24.902,4.883
33.691,22.949,16.602,24.902,7.324
17.09,21.484,17.578,18.555,-15.625
14.16,23.438,19.043,20.02,17.578
6.348,22.461,17.09,15.137,20.02
9.277,18.555,17.578,11.719,16.113
28.32,24.902,22.949,21.484,91.309
23.438,27.832,17.09,19.043,90.332
17.578,25.879,0.488,14.648,5.371
14.16,26.855,9.277,12.695,-10.742
20.02,30.273,26.367,12.695,44.922
36.621,28.32,23.926,20.02,51.27
36.133,23.926,18.555,24.414,20.02
27.832,26.367,16.602,24.414,0.488
23.438,31.25,18.066,20.02,-28.809
27.344,31.25,18.066,16.113,-26.855
37.598,30.762,26.367,18.555,-34.18
34.668,32.227,38.574,21.484,5.859
31.738,34.18,37.109,16.602,32.715
25.879,37.598,31.738,8.789,-11.719
23.438,36.621,39.551,6.836,-42.48
41.504,34.18,41.504,11.719,-6.348
40.039,35.156,41.016,17.578,3.418
31.738,32.227,43.457,17.09,21.484
32.227,32.227,35.156,10.254,41.016
27.344,30.762,30.273,6.836,35.645
37.598,29.785,37.598,7.812,22.461
44.922,32.715,42.48,15.625,-5.371
32.227,27.832,31.738,18.555,20.508
20.02,23.926,19.043,6.836,64.453
19.531,28.32,20.02,5.859,48.828
33.203,30.273,22.461,13.184,40.039
35.156,31.25,22.949,14.16,35.156
27.832,31.738,23.438,17.578,0.977
21.484,24.902,25.879,19.531,4.883
21.973,19.043,24.902,27.832,21.973
46.875,30.273,20.508,31.25,0.488
41.992,35.645,18.555,12.207,-13.672
17.578,31.738,21.484,0.977,37.598
14.648,36.621,16.113,-1.953,14.648
12.695,36.621,12.695,-4.395,-1.953
28.809,36.133,16.113,0,31.25
40.039,40.039,10.254,6.348,24.902
30.762,45.898,6.836,7.324,58.105
25.391,48.828,3.906,-2.441,25.879
21.973,51.758,-3.906,-4.395,39.551
35.645,48.828,-5.859,0.488,89.844
44.922,41.504,-2.93,0.977,73.242
35.645,40.039,-7.324,4.883,70.801
30.273,37.598,-12.695,2.441,77.148
21.484,39.062,-5.859,-1.953,52.734
25.391,41.504,1.953,3.906,39.551
38.086,41.504,1.465,12.695,49.316
35.645,44.434,8.789,20.02,37.109
27.344,39.062,9.766,21.484,33.203
22.949,33.203,2.441,15.137,29.785
28.32,33.691,10.742,16.602,48.828
42.48,31.738,22.949,26.855,71.289
33.691,33.691,26.367,24.902,62.988
24.902,33.691,22.949,24.414,59.57
22.461,30.762,15.625,24.902,63.965
20.508,32.715,11.719,17.578,2.441
38.574,32.227,12.207,21.973,7.324
45.41,29.785,10.254,25.879,66.406
33.203,28.32,6.836,21.973,17.578
24.414,30.762,7.324,13.672,23.926
27.832,33.691,15.625,9.766,61.035
43.945,33.203,18.066,21.484,20.508
44.922,35.156,20.02,27.344,25.879
39.062,39.062,15.625,26.855,43.457
37.598,38.086,8.301,26.367,30.273
35.156,35.156,14.16,23.926,18.066
46.387,31.25,19.531,24.414,21.973
50.293,27.344,17.578,29.785,41.016
43.457,26.855,9.766,35.645,20.508
35.645,22.949,9.766,29.297,-15.625
30.273,22.461,8.301,20.02,-35.156
42.48,24.414,11.23,22.949,-36.621
46.875,24.902,26.855,28.32,13.672
39.551,28.32,28.809,28.32,32.227
37.109,29.297,21.484,23.438,26.367
35.156,30.762,20.508,18.555,8.301
47.363,29.297,27.344,18.066,19.043
59.082,28.809,32.227,26.855,33.691
51.27,28.32,28.32,31.738,61.035
42.969,26.855,27.344,29.297,64.941
40.527,28.32,39.551,26.367,66.406
46.875,24.414,49.805,23.926,85.938
48.34,21.973,47.852,24.902,32.715
38.574,24.902,48.34,32.227,20.996
29.297,23.438,47.852,29.297,56.152
20.996,20.02,41.504,18.555,39.551
29.785,24.414,40.527,21.973,6.836
41.992,23.926,41.504,25.391,-6.348
35.645,22.461,40.527,22.461,12.207
32.227,23.438,42.48,18.066,28.809
26.855,20.996,43.457,12.207,56.641
25.879,21.973,37.109,14.16,20.996
39.551,23.926,46.387,20.996,-6.836
35.156,20.996,45.41,22.461,5.371
24.902,16.113,30.762,24.902,21.484
23.438,17.09,28.32,19.043,39.551
26.855,21.973,38.086,18.555,0
36.621,23.438,42.48,26.367,-8.301
36.621,24.902,35.645,28.809,21.973
31.25,29.785,28.32,28.809,13.184
26.855,32.227,21.484,26.367,-5.371
25.391,31.25,22.949,20.996,-18.555
38.574,31.25,34.668,23.926,35.645
42.48,30.273,41.016,30.273,-2.93
31.25,31.738,41.992,27.344,11.23
24.902,32.227,39.551,22.949,72.266
25.879,29.297,28.809,18.066,22.461
37.598,32.227,33.203,18.066,12.207
39.062,31.738,45.898,20.996,15.137
25.879,28.809,35.645,21.973,11.23
19.043,30.273,24.902,20.508,16.113
17.578,29.785,26.855,15.137,18.066
27.832,30.273,33.203,18.555,16.602
31.25,31.25,35.156,21.484,-6.836
23.438,31.25,32.715,21.973,-14.16
22.461,33.691,28.32,21.973,6.348
15.625,30.273,31.738,16.113,32.715
18.555,26.855,38.574,18.066,69.336
31.738,27.344,35.645,27.832,60.059
29.785,26.855,30.762,33.203,39.062
20.02,25.391,33.691,31.738,-10.254
13.184,22.949,36.621,27.832,-19.043
23.926,19.531,34.668,27.832,15.137
38.574,20.02,39.551,32.715,-20.02
30.762,21.484,39.062,34.668,40.039
20.996,15.137,21.484,30.273,45.41
11.719,17.09,15.137,22.461,33.203
20.996,19.043,22.949,21.973,68.359
36.621,15.625,20.996,22.461,14.16
25.879,20.02,21.973,20.996,-36.133
17.09,19.531,19.531,19.531,-20.508
17.09,20.02,14.16,10.254,-7.324
20.996,20.996,17.09,5.371,0
33.203,20.02,24.414,13.184,20.996
31.25,18.066,25.879,20.508,42.969
21.973,14.16,14.648,13.184,61.523
15.137,15.137,8.301,2.441,77.148
16.602,18.555,18.555,5.371,82.52
38.086,21.484,15.625,9.277,61.035
49.316,28.809,2.93,23.926,57.129
33.203,24.414,16.602,32.227,74.707
13.184,17.09,23.438,12.695,98.145
18.066,22.461,12.695,10.742,63.477
29.785,20.508,21.484,14.648,59.57
29.785,12.695,31.738,13.184,58.105
13.184,9.277,22.949,10.742,-11.23
2.93,6.348,24.902,7.812,-3.418
-5.371,6.348,44.434,6.836,46.875
3.906,4.883,53.711,10.254,45.41
11.719,0.977,54.688,16.602,12.695
-2.441,-1.953,48.828,20.02,34.668
-6.348,-2.441,40.039,21.484,48.34
-14.648,-4.395,33.691,12.207,6.836
-2.93,0,43.457,13.672,15.625
10.742,8.301,47.363,18.555,30.762
-0.488,9.766,40.527,17.09,25.391
-6.836,8.789,43.945,21.973,42.48
-7.324,10.742,47.363,17.578,46.875
9.277,14.16,41.992,19.043,34.18
22.461,15.625,41.016,20.996,11.719
8.789,9.277,43.945,15.137,29.297
-4.883,7.324,36.621,10.742,55.664
-12.207,7.324,27.832,3.418,27.344
1.953,5.859,27.832,5.371,-13.184
15.625,9.766,34.18,18.066,34.668
6.348,11.23,38.574,21.973,12.695
-0.488,13.672,33.203,20.02,-35.645
-3.418,19.043,38.086,18.066,-8.789
5.859,18.555,48.828,19.043,-6.348
25.391,21.973,47.363,27.832,64.941
25.879,25.391,42.48,35.645,40.527
19.531,26.855,33.203,34.18,-46.875
16.113,28.809,41.504,29.785,21.484
15.625,26.367,56.641,26.367,20.996
30.762,24.414,59.082,28.32,9.277
35.645,24.902,65.918,34.668,27.344
20.508,23.926,59.57,33.691,40.527
9.277,25.879,49.316,25.391,47.852
12.695,29.297,55.664,20.996,68.359
31.25,27.832,58.594,22.461,75.195
31.738,24.414,60.059,24.902,44.434
20.02,22.949,61.035,23.926,38.574
13.672,22.949,56.641,15.137,12.695
15.137,27.344,61.523,11.23,37.109
31.738,23.438,54.199,17.578,22.461
32.715,19.043,48.34,20.02,-47.852
22.949,20.508,56.152,20.02,5.371
14.16,20.02,52.246,19.531,33.203
10.742,23.926,48.828,19.043,3.418
29.785,30.273,55.176,22.949,18.555
36.621,29.297,48.34,28.809,-16.113
28.32,32.227,41.504,33.203,-3.906
29.785,36.133,46.387,30.273,49.316
23.926,34.18,42.969,22.949,59.082
32.715,34.668,32.227,27.832,5.859
42.969,35.645,32.227,32.715,-35.156
29.297,30.762,37.109,29.297,-11.719
18.555,23.438,34.18,24.902,15.625
16.602,28.809,28.809,17.578,17.09
26.367,34.18,22.949,17.09,49.805
31.25,28.809,20.02,24.414,25.391
23.438,28.32,15.137,24.902,-37.598
20.508,32.227,11.23,25.879,-11.23
18.066,34.668,15.137,25.391,33.203
22.461,37.598,13.184,20.996,54.199
34.668,39.062,15.625,22.461,32.227
32.227,37.598,23.438,25.391,44.434
23.438,34.668,10.254,19.531,80.078
17.578,33.203,5.859,9.766,81.055
21.973,33.203,19.043,9.277,57.129
30.762,29.785,22.949,13.184,9.277
21.484,28.32,20.508,13.672,32.227
14.16,31.25,14.648,13.672,41.016
13.672,31.738,12.695,10.742,21.973
21.484,30.273,17.09,13.184,23.438
41.992,32.715,22.461,24.414,9.277
45.41,30.273,27.344,28.809,6.348
34.18,24.902,22.461,29.297,11.719
21.973,24.414,16.602,23.926,-2.441
26.367,34.18,22.461,23.926,0
49.805,39.062,20.508,36.133,36.133
39.551,32.715,26.855,36.621,35.645
14.16,32.715,29.785,22.461,29.785
6.836,32.227,18.066,11.23,9.277
6.836,31.25,17.578,7.324,13.184
20.508,31.25,19.531,10.742,45.41
26.855,28.32,10.742,18.066,-6.348
18.555,26.855,4.883,16.113,-15.137
11.719,23.926,0.977,9.766,27.832
11.719,24.902,-0.977,4.395,27.344
24.902,24.902,6.836,7.324,43.457
32.227,25.391,17.578,12.207,47.363
23.438,28.809,15.137,12.207,13.672
12.695,25.879,17.09,10.254,57.617
6.348,20.996,31.738,7.812,67.383
22.461,24.414,39.062,11.719,52.734
34.668,32.715,38.086,20.508,55.176
23.926,31.738,24.902,20.996,15.137
16.602,27.832,12.695,14.648,55.664
9.277,29.785,4.395,13.184,43.945
21.484,29.785,12.207,19.531,4.883
38.086,33.203,25.879,26.855,1.465
35.645,35.645,27.344,30.273,0.977
27.344,36.621,18.555,24.414,41.504
14.16,40.527,22.461,20.996,38.086
23.438,41.504,36.133,26.855,-8.789
42.48,38.574,31.738,30.762,-6.348
37.598,40.039,32.227,30.762,30.762
31.738,42.969,33.691,31.738,50.781
26.367,41.992,33.691,29.297,90.332
31.25,41.504,33.691,29.297,58.105
50.293,42.48,41.504,38.574,52.246
45.41,44.434,42.969,40.527,58.594
30.762,41.504,30.762,30.273,15.625
19.043,38.086,23.926,21.484,31.25
20.996,38.086,22.461,22.461,49.316
36.621,33.203,21.973,25.879,36.133
38.574,33.691,18.066,27.832,53.223
28.809,36.133,19.531,28.32,36.621
20.996,40.039,22.461,21.973,-6.836
22.461,39.062,12.695,19.531,17.09
33.203,38.574,6.836,25.391,-12.695
32.227,40.527,13.672,26.367,-12.207
21.484,35.156,12.695,22.461,42.969
12.207,33.691,4.883,13.672,61.035
11.719,35.645,16.113,10.254,44.434
26.367,33.691,26.367,15.137,45.41
30.762,33.691,25.391,21.484,9.277
25.879,35.156,19.043,25.879,-11.23
15.137,31.738,11.719,21.484,41.016
8.301,28.809,7.812,18.066,19.531
24.902,30.762,10.742,20.508,16.602
29.785,31.25,12.695,20.996,0
19.043,29.297,12.207,20.996,-58.594
13.184,27.832,15.625,18.555,-47.363
11.719,30.762,20.996,16.113,36.621
24.414,30.762,28.32,13.184,59.57
29.785,26.855,29.785,12.695,56.641
22.949,27.344,22.461,14.16,32.227
19.043,27.832,19.531,10.254,18.555
16.602,24.902,24.902,6.348,62.988
24.902,23.438,32.227,4.883,23.438
30.273,26.367,41.992,14.16,0
23.438,28.32,44.922,17.578,26.855
17.09,29.785,41.504,6.348,43.457
12.207,32.227,40.527,-0.977,88.867
21.484,29.297,39.551,-2.441,76.172
35.156,32.715,42.969,3.418,47.363
27.832,39.062,40.039,7.812,11.719
14.16,28.809,37.109,-0.488,-12.207
-0.488,23.438,37.109,-14.648,-12.695
-0.488,27.344,40.039,-12.207,-13.672
11.719,28.809,41.992,-5.371,41.992
7.324,31.25,36.133,-9.277,49.805
-3.418,28.32,34.668,-13.672,23.438
-12.695,30.273,26.367,-20.996,17.578
-10.254,25.879,29.785,-22.461,42.969
7.324,20.508,39.062,-8.301,86.426
-0.977,27.344,32.227,-14.16,47.852
-28.32,26.855,27.344,-30.273,-17.09
-42.969,27.832,29.297,-41.504,-15.625
-48.34,30.273,35.156,-53.223,-37.598
-36.621,30.273,36.621,-45.898,-15.625
-40.527,30.762,36.621,-45.898,20.02
-53.223,34.18,40.039,-59.082,-9.766
-58.105,34.668,41.504,-61.035,-60.547
-70.801,30.273,43.457,-69.824,-54.688
-69.824,31.25,49.316,-83.984,-52.734
-62.5,32.227,42.969,-79.102,-18.555
-72.754,31.25,28.32,-82.031,80.078
-82.031,32.227,29.785,-86.426,88.867
-83.984,36.621,34.18,-83.984,20.996
-71.777,38.086,41.992,-88.379,19.531
-57.617,39.062,42.969,-83.496,20.508
-67.871,37.598,36.133,-81.543,35.156
-85.938,39.551,31.25,-90.332,75.684
-79.59,44.434,31.25,-87.891,1.953
-57.129,40.527,45.41,-76.172,7.812
-50.293,34.18,54.199,-70.801,3.906
-52.734,35.156,54.688,-62.5,56.152
-50.781,35.645,59.082,-47.852,99.609
-58.594,32.227,54.688,-46.875,96.68
-41.504,31.25,43.945,-38.574,79.102
-14.16,27.832,52.246,-17.578,61.523
-18.555,24.902,63.477,-11.719,50.293
-23.438,21.973,44.434,-19.043,4.883
-23.926,24.414,32.715,-26.855,75.684
-11.719,25.391,48.828,-17.578,95.215
8.301,24.414,48.828,-5.859,36.621
14.16,26.855,31.738,1.465,51.27
4.395,20.996,23.438,0,51.27
-2.441,17.578,23.926,-6.348,-6.836
13.184,20.02,22.461,4.883,-12.695
35.645,23.438,17.09,20.02,-2.93
29.785,25.879,12.207,21.484,-10.742
22.461,20.02,15.137,23.926,13.672
21.973,16.113,12.207,24.902,43.945
30.762,18.555,10.742,22.461,11.23
56.641,20.508,14.16,31.25,30.762
61.035,21.973,9.766,42.969,57.617
52.246,21.484,0.488,43.457,7.324
46.387,20.02,-3.418,38.574,37.109
43.945,18.555,-0.977,39.551,7.812
59.082,18.555,-0.977,48.34,-2.441
63.965,19.531,-3.906,57.617,82.52
59.082,20.508,-4.395,60.547,15.137
53.711,21.484,0,61.523,-60.547
52.734,22.949,-6.836,63.965,-47.852
72.266,23.438,-12.207,69.824,-24.902
82.031,22.461,-2.93,78.613,11.719
73.73,20.508,-13.184,80.078,21.973
66.895,22.949,-29.785,75.684,71.777
63.965,29.297,-22.949,77.637,94.727
74.707,31.25,-19.531,81.055,43.457
79.59,28.809,-18.066,85.938,57.129
69.824,26.855,-14.648,89.355,66.406
64.453,25.391,-15.625,87.402,17.578
59.082,27.832,-17.09,84.961,23.438
63.965,29.297,-10.254,79.59,61.035
74.219,28.809,5.371,77.148,63.477
70.801,28.809,7.324,80.566,51.758
61.523,24.902,-5.371,70.312,22.461
50.781,24.902,-6.348,58.105,-1.465
63.965,28.809,-0.977,63.965,-11.23
75.195,31.25,6.836,69.336,12.207
63.477,27.832,4.883,71.289,62.988
59.082,25.391,-2.441,73.73,46.387
60.059,31.25,-10.254,68.848,33.203
66.895,34.18,-8.789,67.383,70.312
80.078,33.691,1.953,74.219,71.289
74.219,33.203,-6.836,74.219,75.684
63.965,35.156,-6.836,65.918,74.707
61.035,35.645,0.488,60.547,82.031
65.43,33.691,1.465,59.082,109.375
81.543,37.109,11.719,66.895,29.785
80.078,40.527,24.902,73.242,-5.859
72.754,39.551,18.066,70.801,0.977
70.312,38.574,7.812,65.918,14.16
74.707,38.086,9.277,60.059,27.344
88.379,39.062,11.719,62.988,-39.062
78.125,34.18,16.113,68.359,-38.086
59.57,28.809,12.207,65.918,13.672
57.129,28.809,1.953,60.059,-4.395
57.617,27.344,2.441,53.223,6.836
69.336,29.785,11.719,52.734,39.551
68.848,33.691,17.578,52.246,25.879
55.176,33.203,9.766,46.875,62.5
52.734,31.738,4.395,39.062,53.223
52.734,32.715,7.812,34.18,-20.02
61.035,33.691,8.789,38.086,-19.531
60.547,33.203,4.883,39.551,-3.906
45.41,27.832,-0.977,41.504,-15.625
38.574,22.949,0,41.504,1.465
32.227,20.996,4.883,32.227,27.344
41.016,20.508,5.371,33.203,16.602
45.41,23.438,10.254,42.48,2.93
37.598,21.973,10.742,45.41,-0.977
31.738,20.508,5.371,37.598,42.48
22.461,20.996,9.766,30.273,79.59
31.738,20.996,13.184,37.598,52.734
45.41,18.066,20.996,46.387,14.16
32.715,18.555,19.043,45.41,14.648
18.066,20.996,11.23,38.574,27.832
18.066,17.578,19.531,30.762,7.812
33.691,14.16,19.531,30.762,27.832
43.457,17.578,17.09,31.738,38.086
32.227,20.996,18.555,32.715,48.34
30.273,24.414,17.578,34.668,17.578
28.809,26.855,23.926,32.227,30.762
25.879,26.855,29.297,31.25,52.246
36.133,27.832,29.297,33.691,59.57
27.832,22.461,24.414,33.691,43.457
19.531,20.508,24.902,27.832,26.367
18.066,23.438,30.273,27.344,22.949
18.066,26.367,33.691,28.32,35.645
33.203,30.762,39.551,28.32,32.227
32.227,27.832,37.598,29.297,-14.16
20.508,25.879,32.715,24.902,-4.395
14.648,30.273,25.391,23.438,25.879
22.461,28.32,22.949,18.555,21.973
38.086,28.809,37.109,21.484,11.719
32.227,28.809,48.828,24.414,89.844
21.973,23.438,44.434,19.531,85.449
17.09,26.367,38.086,14.16,-23.438
15.137,28.809,44.922,7.812,-16.602
25.879,25.879,51.27,6.348,8.301
27.832,22.461,52.246,10.254,-10.254
23.926,26.367,44.922,12.695,-34.668
20.508,29.297,45.898,9.277,-31.738
14.648,27.832,45.898,0.977,1.953
28.32,27.832,42.969,3.418,52.734
30.762,28.32,53.711,12.207,57.617
22.461,27.832,57.129,18.555,45.898
23.926,28.809,61.035,12.695,42.969
22.461,29.297,70.801,8.301,0.488
37.598,29.785,77.148,16.602,-47.852
50.781,34.668,85.938,29.297,-8.301
40.527,30.762,75.684,30.762,30.762
33.203,28.32,68.848,29.785,60.059
32.715,32.715,71.777,25.879,26.367
35.645,33.203,70.312,20.02,-20.02
43.457,30.762,71.777,25.879,23.926
40.527,31.25,74.707,30.273,22.461
33.691,35.156,74.219,27.344,4.395
31.738,38.574,70.801,24.902,38.086
44.434,38.086,68.359,31.25,74.219
60.547,31.25,62.988,37.598,89.355
50.293,31.25,54.199,37.109,155.762
39.062,37.109,44.922,27.832,127.441
31.25,35.645,42.969,15.137,29.297
34.18,33.691,41.016,14.16,42.48
52.246,38.086,41.016,26.367,41.992
46.875,38.086,50.293,27.344,66.406
36.133,35.645,46.875,21.484,100.586
28.32,33.691,41.504,21.484,127.441
28.809,29.297,42.48,20.996,68.359
