TP9,AF7,AF8,TP10,Right AUX
4.883,22.949,8.789,23.926,35.156
19.531,22.461,5.371,28.32,66.406
20.508,19.531,11.23,25.391,33.691
30.273,14.16,21.484,37.109,-31.25
24.902,22.461,16.602,38.086,32.715
17.578,25.391,15.137,28.809,85.938
18.555,25.879,16.602,20.508,66.406
30.273,30.273,14.16,11.23,62.5
44.922,23.926,28.809,13.184,0.977
28.809,21.484,31.738,20.996,26.367
14.648,29.297,25.879,21.484,53.223
22.461,26.855,25.391,21.973,-24.902
38.086,25.391,32.715,23.438,13.184
39.551,27.344,40.527,27.832,40.527
17.09,24.902,38.086,18.555,43.945
9.766,24.902,33.203,8.301,97.656
9.277,24.414,28.32,8.789,11.23
12.207,26.367,20.996,5.859,-30.762
32.227,27.344,20.02,7.812,42.48
21.973,21.484,30.273,8.301,42.969
6.348,18.066,27.832,10.254,0.977
9.277,18.066,19.043,9.277,41.504
19.531,19.043,18.555,5.859,62.988
31.738,19.531,24.902,7.324,81.543
28.809,20.02,20.508,14.16,76.66
25.391,20.508,15.625,26.855,20.02
21.484,20.02,9.766,20.996,22.949
27.344,20.996,11.23,19.531,8.301
49.316,20.02,22.461,28.809,10.254
47.363,18.066,21.973,24.902,5.859
31.738,17.09,21.484,23.438,-0.488
19.043,14.16,20.508,21.484,46.387
39.062,12.207,12.207,26.855,41.992
49.805,16.602,20.508,23.926,18.066
35.645,15.137,25.391,20.02,46.387
25.391,9.277,21.973,23.926,47.363
12.695,10.254,21.973,23.926,27.832
31.25,13.672,21.973,23.926,14.648
34.668,12.695,22.461,24.414,8.789
21.484,8.789,23.438,23.926,47.852
16.602,5.859,20.02,21.973,20.02
2.93,6.348,14.648,11.23,-19.531
21.484,9.277,16.602,6.348,76.172
39.062,15.625,27.344,16.602,81.055
30.273,7.324,38.574,24.902,2.93
30.273,2.93,33.203,19.043,0
28.32,10.254,25.391,11.719,69.824
29.297,8.301,24.902,9.277,42.48
39.551,14.16,32.227,16.113,48.34
41.504,18.066,35.156,16.602,106.445
33.203,11.23,29.785,20.508,64.453
21.484,12.695,23.926,18.555,62.012
18.066,23.438,14.16,13.672,-7.324
31.25,22.461,12.207,15.625,-19.043
37.109,16.113,26.367,24.902,50.781
25.391,15.625,28.32,28.32,90.82
13.672,21.484,19.043,18.066,65.918
20.02,23.438,5.371,16.113,-4.395
23.438,19.531,3.906,15.137,-11.23
26.367,22.949,11.23,14.16,5.859
27.832,19.531,9.277,14.16,-21.973
12.695,12.207,6.836,7.812,22.949
-7.812,11.719,-0.977,-1.953,6.836
3.906,16.602,0,0,-47.363
25.879,29.297,10.254,5.371,14.16
17.09,32.715,9.766,4.395,22.949
12.207,29.297,13.672,5.859,-2.93
7.812,29.297,12.207,5.859,45.898
12.207,24.902,9.277,2.441,52.734
23.926,20.02,20.02,2.441,50.293
15.625,20.996,21.484,9.766,52.246
20.508,22.461,17.578,12.695,-4.395
14.16,21.973,11.719,4.883,14.16
4.883,14.648,13.672,0.488,88.867
25.391,15.625,18.555,0.488,29.297
16.113,28.32,18.066,2.441,-49.805
0.488,31.25,19.531,4.395,28.809
-4.395,26.855,12.207,-0.488,34.18
5.371,27.832,7.324,-7.324,-6.836
24.414,31.738,13.672,-1.953,35.645
13.184,31.738,23.926,12.695,31.25
-0.488,27.344,26.855,12.207,7.324
0,19.531,17.578,7.812,-41.992
13.672,15.137,10.742,15.625,-54.688
28.32,20.508,16.113,21.973,35.645
33.691,29.297,20.02,28.32,53.223
28.809,34.18,16.602,27.344,5.859
13.672,34.668,14.16,16.113,44.434
12.695,31.25,10.254,5.371,71.289
51.758,30.762,18.066,9.766,41.504
52.734,34.668,23.926,17.578,27.344
14.16,35.156,22.461,11.719,50.781
4.883,33.203,20.996,6.836,44.922
4.395,30.273,8.789,1.465,8.789
15.625,28.809,16.602,0,10.254
20.996,30.273,35.645,2.441,-8.301
16.113,23.438,36.133,-3.906,20.996
21.973,11.719,33.691,0.488,-18.066
1.465,-4.883,30.762,8.301,-59.57
-4.883,-14.16,35.645,-6.348,12.207
-3.906,-10.742,41.016,-21.973,-10.742
-13.672,-17.578,35.156,-19.531,-32.715
-35.156,-23.926,35.156,-32.715,20.508
-32.715,-19.531,26.855,-47.852,42.48
-24.414,-12.207,20.02,-51.758,1.465
-24.414,-11.23,38.574,-53.223,8.789
-42.969,-16.602,40.039,-51.27,42.969
-61.035,-9.277,33.203,-54.199,32.227
-56.152,-0.977,29.297,-66.895,29.297
-41.016,2.93,26.855,-63.477,-5.859
-27.344,2.93,38.574,-53.711,50.781
-40.527,1.953,39.551,-54.688,17.09
-53.711,1.465,35.156,-54.688,-23.438
-57.129,-0.977,28.32,-59.57,63.965
-56.641,-2.93,18.555,-66.406,72.754
-47.363,-4.883,34.668,-62.988,43.945
-50.293,-10.254,48.828,-55.664,10.742
-70.312,-14.648,40.039,-64.453,-6.348
-64.941,-11.23,30.762,-65.43,21.973
-53.223,-3.418,29.297,-66.406,53.223
-54.688,2.441,29.297,-65.43,0.488
-43.945,7.812,28.809,-54.199,-3.418
-51.27,10.254,18.555,-61.035,5.859
-59.082,8.789,16.602,-63.477,-20.508
-53.711,5.371,23.438,-59.57,52.734
-32.227,6.836,25.879,-59.57,76.66
-39.551,13.184,21.484,-66.895,47.363
-49.805,19.531,15.137,-59.082,22.949
-41.016,22.461,19.043,-44.434,3.418
-40.527,19.531,14.648,-58.105,28.32
-33.203,17.09,19.043,-70.801,64.941
-23.438,15.137,29.785,-57.617,30.762
-34.18,7.812,22.461,-53.223,24.902
-39.062,5.859,10.742,-60.547,39.062
-35.156,9.766,-2.441,-61.035,19.531
-37.109,11.23,-3.418,-61.523,6.348
-30.273,10.742,0.977,-53.711,23.926
-27.344,14.648,-9.277,-43.945,26.367
-38.574,12.207,-12.207,-48.34,0.977
-38.574,8.301,-13.184,-48.828,-21.973
-16.602,11.719,-12.207,-49.805,2.441
-9.277,15.137,1.465,-52.246,73.242
-17.578,23.926,-5.371,-40.039,41.992
-26.367,32.715,-16.602,-37.598,51.27
-27.344,34.668,-24.902,-45.898,93.75
-11.719,39.062,-26.367,-40.527,45.898
1.465,44.434,-20.02,-37.109,15.625
-7.812,44.922,-17.578,-37.109,-13.672
-18.555,38.086,-23.926,-34.18,14.648
-12.207,37.598,-36.621,-36.133,-17.578
11.719,40.039,-23.926,-21.484,-20.02
19.531,37.598,-9.277,-11.23,23.438
6.348,30.273,-4.883,-13.184,-3.906
11.719,26.367,-4.883,-8.789,-16.602
12.695,21.973,-10.742,-6.348,10.742
22.461,17.09,-1.953,-1.465,39.062
44.922,20.508,19.043,6.348,44.922
36.621,25.391,17.578,12.695,-8.789
36.133,25.879,8.301,25.879,-10.254
50.781,20.996,11.719,40.527,57.129
59.57,14.16,7.324,54.688,11.719
73.242,10.254,12.207,59.57,18.555
84.961,10.254,15.137,62.012,64.453
77.637,7.324,13.672,73.73,20.996
59.082,0.977,18.555,69.824,52.734
62.988,-3.906,11.719,71.777,38.086
80.566,-6.836,19.043,86.914,-24.902
89.844,-10.254,37.109,100.586,-15.137
92.773,-4.395,25.879,104.004,5.859
87.891,2.93,9.766,98.145,32.227
85.938,2.441,4.883,98.145,47.852
105.469,5.859,16.602,101.562,42.48
120.117,5.859,27.832,114.746,35.645
101.074,0.977,20.996,117.676,0.977
79.59,-5.859,20.996,108.887,61.035
85.449,-7.324,18.066,102.539,106.445
98.633,1.465,22.949,100.586,43.945
104.004,6.836,30.273,105.469,20.02
91.797,3.418,27.344,107.91,11.23
85.449,2.93,27.344,102.539,-7.812
91.797,3.906,25.391,97.656,20.02
97.656,5.371,30.762,100.098,12.207
107.422,7.324,36.621,104.98,9.277
103.516,8.789,29.297,104.492,-15.625
84.961,9.277,25.391,98.145,21.484
81.055,6.348,16.113,90.82,22.949
89.844,11.23,20.02,80.566,37.598
96.191,17.578,37.598,83.496,85.449
91.797,21.484,36.133,89.844,73.242
85.938,26.855,31.25,83.008,36.621
79.59,24.902,20.508,78.125,38.574
81.055,21.973,17.09,77.148,29.297
94.727,18.555,30.273,81.543,41.992
93.75,17.09,27.344,90.82,55.176
74.707,16.602,19.043,86.914,21.484
67.871,16.113,17.09,79.102,-12.207
72.754,18.066,23.926,79.102,17.09
86.914,17.578,30.273,82.52,55.664
80.078,18.066,28.809,81.055,42.48
58.105,16.113,24.902,74.219,86.914
57.617,10.254,11.719,73.73,87.891
63.965,12.207,-3.418,72.266,19.043
70.312,19.531,8.301,66.895,12.695
70.801,19.531,24.902,70.801,38.574
62.988,14.648,21.973,69.824,11.23
54.688,12.695,15.137,68.848,-19.043
69.824,14.648,17.09,72.754,46.387
82.52,15.137,25.879,76.66,66.895
62.5,13.184,23.926,69.824,70.312
58.105,12.207,18.555,59.082,110.352
46.875,9.766,18.066,62.5,74.219
41.992,8.301,17.578,55.664,53.223
50.781,10.742,20.02,56.152,83.496
47.852,8.301,21.484,62.012,52.246
42.969,13.184,17.578,56.641,-0.977
32.715,23.926,20.996,55.664,35.645
24.902,22.461,14.648,45.41,71.777
40.527,18.555,15.625,41.992,-39.062
48.828,20.508,30.273,48.34,-12.207
32.227,20.508,23.926,46.875,79.59
28.809,18.555,12.207,50.293,60.547
32.715,19.531,5.371,46.387,-17.09
37.109,23.438,16.113,34.18,-42.48
45.41,25.879,33.203,37.598,-0.977
38.574,19.531,30.273,40.527,-38.574
26.855,20.02,28.809,41.504,-51.758
24.902,19.531,23.926,33.203,-4.395
38.086,16.602,26.367,32.227,29.785
53.223,20.508,39.062,43.945,73.73
48.34,22.949,36.621,46.387,14.16
33.203,23.438,29.297,43.945,-9.277
31.738,21.973,23.926,41.504,56.152
44.922,19.531,21.973,36.621,54.199
50.293,19.043,26.855,45.41,3.906
44.434,20.508,31.25,45.41,-11.23
29.297,18.066,35.645,30.273,101.074
16.602,14.16,25.879,24.414,110.84
25.879,17.578,21.973,20.508,73.242
39.062,18.066,33.691,18.555,58.594
36.621,16.113,31.25,29.297,47.363
29.297,15.137,27.832,25.879,30.273
23.438,7.324,22.461,16.113,-47.363
26.855,6.836,22.461,11.719,10.254
38.574,10.742,29.785,17.578,75.684
46.387,7.812,23.438,28.32,37.109
34.668,5.859,17.09,25.879,36.133
15.137,5.371,15.625,28.809,72.754
26.855,1.953,8.301,32.715,52.246
53.711,3.418,11.719,32.715,52.246
44.922,5.859,20.508,32.715,62.988
17.09,1.465,21.484,16.113,57.129
15.625,-0.977,21.484,16.602,44.922
28.32,4.395,15.137,34.18,31.25
44.922,7.812,21.973,43.945,60.059
51.758,6.348,34.18,50.293,77.637
45.41,4.883,34.18,47.363,19.531
42.969,5.371,33.691,47.363,-34.668
40.527,2.441,20.02,44.922,25.391
53.711,-1.953,22.461,44.922,45.898
61.523,1.465,33.691,52.246,16.113
50.781,4.883,26.367,55.664,14.648
43.457,7.324,26.855,56.641,-1.465
40.039,7.324,24.902,45.41,-0.488
44.922,6.348,30.273,44.922,-17.09
53.223,8.789,33.691,55.664,34.18
48.828,11.719,23.438,48.34,32.227
35.156,16.602,22.949,37.109,-32.715
28.32,22.949,22.949,33.203,36.133
35.156,25.391,17.578,28.809,84.961
48.828,24.414,14.648,33.691,40.039
39.551,19.531,13.184,35.645,42.969
14.16,13.184,10.254,23.438,50.293
2.441,9.766,-1.465,24.414,-0.977
8.789,15.625,0.488,24.902,-17.09
31.25,20.508,15.625,27.344,-2.93
32.715,21.484,14.16,35.645,32.715
16.113,20.02,14.16,35.156,52.246
10.254,13.672,13.672,24.902,47.363
17.578,15.625,14.648,33.203,57.129
33.203,21.484,29.297,44.434,31.738
36.621,18.555,24.902,44.434,36.133
25.391,17.578,18.555,48.34,41.016
20.996,22.461,15.625,44.922,0.488
30.273,26.367,6.836,39.062,-14.648
45.898,30.273,20.508,49.805,17.578
48.34,32.715,32.715,57.129,69.824
39.551,35.645,25.391,49.805,65.43
30.762,36.133,22.949,45.41,71.777
32.715,34.18,21.973,42.969,48.34
48.828,34.668,24.414,40.527,16.113
42.48,34.18,22.461,30.273,15.137
27.344,35.156,18.066,23.926,44.922
24.414,35.645,12.695,22.949,31.738
28.32,34.668,9.277,25.391,8.301
32.715,33.691,17.09,25.879,73.73
22.461,34.668,20.02,22.461,90.82
16.113,35.156,8.301,26.367,49.805
10.742,31.25,4.883,24.902,15.625
13.184,30.762,6.348,21.484,-33.203
26.367,30.762,14.16,24.414,2.441
30.273,28.32,18.066,25.879,2.441
21.484,32.227,16.113,22.461,-17.09
10.254,37.598,16.113,21.484,17.578
18.066,38.574,8.789,18.066,-38.086
26.367,38.086,14.16,22.461,-42.48
32.227,35.645,31.738,30.273,86.426
31.25,32.227,30.762,34.668,137.695
18.066,32.715,21.973,36.621,38.086
16.113,31.25,10.254,29.785,2.93
25.391,26.367,12.207,28.32,13.184
36.133,25.391,29.785,37.109,29.785
35.156,26.855,32.715,36.621,2.441
29.297,22.461,33.203,36.621,-11.719
16.113,20.508,20.508,28.809,-6.348
22.949,20.02,19.531,20.996,38.086
38.574,19.531,37.598,29.785,73.73
36.621,24.414,39.062,38.086,30.273
32.715,24.414,29.297,41.016,-6.836
28.809,19.043,27.344,36.133,37.109
29.297,17.09,25.391,26.367,90.332
51.27,17.578,33.691,41.992,42.48
58.105,22.461,38.086,50.293,24.902
23.438,22.461,24.902,15.137,19.043
11.23,27.344,13.184,1.465,-13.672
17.09,33.203,19.531,8.301,21.973
32.227,27.344,27.344,11.719,45.898
20.02,29.785,19.531,-1.465,24.902
-1.465,34.668,13.672,-10.254,19.531
3.418,29.297,6.348,-12.207,2.441
-1.465,23.438,1.465,-19.531,50.293
11.719,23.926,8.789,-12.695,43.945
23.926,22.461,15.137,-2.441,-11.719
15.137,20.508,10.254,1.953,-3.906
6.348,17.09,10.742,4.883,33.691
6.348,14.648,-1.465,0.488,72.266
16.602,17.578,-3.418,6.348,46.875
24.902,22.461,14.16,21.484,-20.996
19.043,22.461,14.648,16.602,-14.648
4.883,21.484,11.719,15.137,6.348
-0.977,19.043,9.277,10.742,42.48
19.531,15.137,10.254,13.184,62.012
34.668,17.578,12.695,25.391,62.012
26.367,23.438,0.977,22.461,33.203
18.066,24.902,3.418,15.625,36.133
15.137,25.879,6.836,12.207,107.91
20.996,27.832,8.301,12.695,60.059
27.344,23.438,16.113,20.508,-32.715
27.832,20.996,11.23,29.297,26.855
21.973,24.902,8.301,28.32,61.523
14.16,26.367,5.859,22.461,9.277
27.832,27.344,7.812,24.414,15.137
43.457,29.297,12.207,24.902,0.977
29.297,22.461,17.578,30.762,-33.691
15.625,17.09,23.438,36.621,10.254
11.23,17.09,17.09,29.785,31.25
20.02,21.484,15.137,21.973,-13.184
38.086,24.902,25.391,26.367,-7.324
34.18,20.02,25.391,33.691,29.785
20.508,16.113,26.367,28.32,100.586
10.742,20.02,19.531,21.973,96.191
16.602,19.531,20.996,23.926,5.859
35.645,25.391,37.109,25.879,-30.273
35.645,31.738,36.133,27.344,-6.348
27.344,27.832,28.32,28.809,23.438
21.973,26.855,29.297,27.832,36.133
23.926,25.879,29.297,25.391,31.25
37.598,24.414,34.668,27.344,62.988
29.785,24.902,41.504,24.902,55.176
26.855,23.438,36.133,39.551,1.465
32.227,25.879,25.391,46.875,19.531
13.184,20.508,16.602,6.348,29.297
17.09,17.09,23.438,-11.23,5.859
21.484,25.879,27.832,0.488,26.367
11.719,21.973,27.832,2.441,83.984
11.23,11.719,22.949,2.93,75.684
-8.301,16.602,2.93,-11.23,-4.883
6.348,24.414,-1.465,-3.906,-24.902
31.738,27.832,2.93,12.695,34.668
13.184,31.738,3.418,7.812,64.453
2.93,30.762,7.324,7.812,37.109
9.277,28.809,-7.324,2.441,-13.184
19.043,27.344,-11.23,10.742,-28.32
32.715,27.344,3.418,25.391,38.086
34.668,24.902,-2.441,11.23,57.129
17.09,22.461,-5.371,6.348,6.836
8.301,20.508,-1.465,7.812,61.523
22.949,20.996,1.953,8.301,51.27
33.203,25.391,12.695,17.09,25.391
26.367,25.879,17.09,21.973,30.273
18.066,28.809,11.23,22.461,27.832
13.672,29.785,3.906,18.066,14.16
16.113,29.785,13.184,8.789,10.742
24.902,26.367,28.809,14.16,30.762
25.879,24.902,27.344,21.484,14.16
16.113,27.832,21.484,13.672,18.066
8.301,28.809,9.766,9.277,-27.832
11.23,30.273,11.719,14.16,-32.715
18.555,27.832,22.949,20.508,39.062
16.113,30.273,23.926,22.949,55.176
8.301,33.691,21.484,11.23,67.871
10.254,33.203,12.695,9.277,67.383
13.184,39.062,7.324,12.207,31.738
21.484,41.016,13.184,13.672,37.109
30.273,40.039,21.973,20.508,23.926
23.926,41.016,20.508,18.555,9.766
16.602,40.039,4.395,8.301,21.484
20.508,34.668,1.953,9.277,-11.719
27.832,30.762,12.207,13.672,-61.523
24.902,32.715,14.16,16.113,12.695
17.09,31.25,10.254,16.113,38.574
16.602,26.855,8.301,6.348,5.859
15.137,25.391,-0.488,-4.883,-6.348
40.527,34.18,-1.953,15.625,-6.836
48.828,37.109,10.742,29.297,8.789
11.719,25.391,23.438,14.16,-47.852
-0.488,19.043,21.484,9.277,-57.129
9.766,15.625,14.648,10.742,13.672
23.438,14.648,27.344,22.461,47.852
35.156,14.16,41.504,42.969,38.086
27.344,11.719,36.621,46.387,41.992
25.391,10.742,28.32,36.621,30.273
26.855,4.395,25.391,36.133,20.02
32.715,5.859,28.32,40.039,57.129
47.363,10.254,33.691,42.48,87.402
41.504,6.836,33.203,44.434,22.461
30.762,6.348,27.344,43.945,28.809
26.367,8.789,19.531,36.621,39.551
40.527,10.742,29.297,34.668,-1.953
54.688,15.137,41.992,42.48,30.273
44.434,20.996,32.715,48.34,76.66
31.738,22.949,27.832,55.664,51.27
27.344,18.555,22.949,40.527,-37.109
32.227,18.555,22.949,29.297,-27.832
41.504,17.578,29.785,34.668,47.363
39.551,9.766,28.32,32.227,24.414
27.344,4.395,29.785,30.762,56.641
17.09,6.836,26.367,35.645,64.453
21.484,8.789,20.508,30.762,14.16
41.992,15.137,25.879,29.785,37.598
40.039,15.137,28.32,34.668,-18.555
23.926,12.207,31.25,36.621,-23.438
23.438,16.113,18.555,30.762,30.762
26.855,19.043,11.719,23.926,-25.391
42.48,20.02,21.484,31.25,-41.016
41.016,20.02,17.09,35.645,24.414
23.926,15.137,16.602,39.062,84.473
19.043,9.277,16.602,35.156,71.289
20.996,9.766,12.695,32.227,21.484
42.48,12.695,14.648,47.363,29.297
53.711,17.09,19.043,58.105,69.336
29.785,21.973,26.855,42.48,11.23
9.766,23.438,20.02,20.996,2.93
14.648,21.484,8.301,10.254,20.996
28.32,22.949,13.184,5.859,-10.742
27.832,24.414,17.09,12.695,35.645
20.02,24.902,6.836,17.578,100.098
9.766,21.973,3.418,14.16,93.262
0,18.555,3.906,8.301,47.852
10.254,20.996,10.742,15.625,8.301
18.066,18.066,23.438,28.809,20.508
5.859,16.113,19.531,27.832,20.508
-1.953,14.648,4.883,22.949,12.207
-1.465,20.996,-3.906,20.996,-34.18
12.207,29.297,3.906,18.066,-31.25
17.578,27.832,12.695,18.066,17.578
10.742,25.391,12.695,17.09,64.941
10.254,22.949,9.277,21.484,67.383
1.465,22.461,-4.395,18.066,26.367
10.254,25.879,-7.812,8.301,58.594
30.273,28.809,6.836,16.113,28.32
25.391,28.809,7.812,23.926,3.906
13.184,30.273,4.395,22.949,52.246
14.16,32.227,-1.953,18.555,66.406
21.484,34.18,-2.93,16.113,-2.441
27.832,35.156,4.395,24.414,2.93
22.949,31.738,6.348,31.25,25.879
11.23,30.273,6.348,32.227,6.836
12.695,27.344,-2.441,22.949,-14.16
23.438,25.879,-6.836,10.742,-57.129
32.227,27.344,10.742,22.461,-1.465
27.344,27.344,20.02,30.273,39.551
17.09,30.273,15.625,22.949,16.113
15.625,29.785,9.766,17.578,12.695
18.066,22.461,6.348,13.672,30.273
32.227,17.578,9.766,14.16,5.371
33.691,15.625,14.16,25.879,20.508
18.066,18.555,10.742,24.902,7.812
7.324,22.461,5.371,14.16,-21.973
11.719,25.391,4.395,8.301,-4.395
28.809,28.809,15.137,15.625,36.621
31.25,31.25,21.973,33.203,47.363
15.137,32.227,20.02,29.785,39.551
12.207,29.785,7.812,19.043,72.266
15.137,32.227,1.465,15.137,96.191
28.32,33.203,10.254,17.578,78.125
39.551,29.297,19.531,29.297,80.566
27.344,26.855,22.949,29.785,72.754
15.625,27.344,16.113,25.391,45.898
13.672,31.738,9.277,16.602,77.148
27.832,34.18,13.672,18.555,71.777
36.621,28.809,28.809,25.391,5.371
23.438,24.414,26.855,19.043,-12.695
17.578,27.344,15.137,16.113,-39.062
18.066,24.414,16.113,18.066,41.504
30.273,24.414,17.578,29.785,76.172
32.227,32.227,15.137,16.602,-6.348
15.137,31.25,14.16,-3.906,-9.766
6.836,26.367,11.719,-8.301,-23.438
-4.395,28.809,8.301,-17.09,14.648
6.836,30.762,8.789,-15.625,41.992
18.555,24.902,13.184,-14.16,40.039
8.789,23.926,14.16,-10.742,-0.488
3.906,26.367,8.789,-8.789,28.809
1.465,24.902,2.93,0.488,68.359
14.16,27.344,8.301,15.137,1.465
29.785,28.32,21.973,18.066,15.137
23.926,27.344,23.438,18.066,20.996
19.043,28.809,15.625,20.508,12.695
12.695,23.926,13.184,17.578,26.855
17.09,21.484,22.949,18.066,77.637
32.715,25.879,39.551,29.785,114.258
29.785,27.344,38.574,31.738,55.176
16.602,32.715,38.086,22.461,58.105
6.836,34.668,27.344,9.766,80.566
9.277,31.25,16.113,1.465,19.531
20.996,29.297,35.645,11.719,15.625
19.531,24.414,37.598,21.973,27.832
12.207,21.973,20.508,17.578,46.387
6.836,23.438,7.812,10.742,13.672
5.371,26.367,8.789,13.184,16.602
22.461,31.25,18.066,14.16,77.637
30.273,36.621,20.02,14.16,45.41
18.555,35.645,24.414,16.113,88.379
8.789,36.133,16.602,11.23,111.816
8.789,35.645,7.324,6.836,-7.324
18.555,38.574,25.391,10.742,-57.617
26.855,38.086,30.273,18.555,26.367
13.184,28.32,24.414,20.508,-1.465
0,23.438,20.508,19.043,-1.465
2.441,25.879,12.207,16.602,48.34
16.113,26.855,15.137,18.555,16.113
20.996,24.414,15.625,19.043,-23.438
6.836,21.973,11.23,14.16,-38.086
8.301,21.484,8.301,12.207,0
10.254,20.508,4.395,7.812,27.832
18.066,18.555,5.859,8.789,25.391
30.762,20.508,9.766,5.859,22.949
25.879,19.531,9.766,6.836,38.574
18.555,15.625,8.789,15.137,39.551
17.578,15.137,0,11.719,51.758
26.367,18.555,-0.488,9.277,56.641
40.527,21.973,12.695,19.043,19.531
34.18,20.02,15.625,21.973,8.301
21.973,20.02,8.301,11.23,4.395
11.23,22.949,0.977,1.953,58.105
14.648,20.508,1.953,7.812,55.176
32.715,18.066,3.906,16.113,-21.484
27.832,20.02,1.465,19.043,-17.09
11.719,19.531,-3.418,12.695,19.531
4.395,16.602,-13.184,2.441,18.555
14.16,19.043,-6.348,8.301,26.367
29.785,20.996,11.719,17.578,106.934
30.762,18.066,15.625,20.508,104.004
19.531,14.648,11.23,19.043,24.902
12.207,16.602,5.371,16.602,51.758
23.438,20.508,4.883,9.277,70.312
38.086,23.438,18.066,12.207,22.949
33.203,27.344,25.391,24.414,50.293
24.902,30.273,23.438,28.809,25.391
21.484,32.715,10.254,30.762,18.066
20.508,33.203,6.348,24.414,62.988
35.645,34.18,16.602,29.785,44.434
40.527,33.691,22.461,43.945,29.297
26.855,31.738,19.043,35.156,28.32
17.578,30.273,3.906,18.555,35.645
11.719,28.32,2.441,10.742,17.578
21.973,31.738,19.531,11.23,9.277
30.273,33.203,25.879,23.438,10.742
24.902,29.785,22.461,25.879,-52.246
20.02,26.855,17.09,16.602,19.531
17.09,27.344,15.625,14.16,108.887
24.902,26.367,20.508,18.555,104.492
32.715,21.484,16.113,24.414,75.195
24.902,20.02,13.184,22.949,-1.953
15.137,19.531,13.184,22.949,0
9.277,17.09,3.418,18.066,-3.906
22.949,21.484,6.348,22.949,18.066
36.621,27.344,15.137,31.738,19.531
31.25,32.227,11.719,33.203,13.184
14.16,26.855,5.859,32.715,52.246
-8.301,17.578,5.859,15.137,34.668
0.977,15.625,15.625,9.277,51.27
17.578,8.789,16.602,15.625,64.453
7.324,3.418,9.277,17.578,26.855
-4.883,0.977,9.766,20.508,47.363
-3.418,3.418,4.395,14.16,81.543
7.324,6.836,6.836,3.906,36.621
20.996,6.348,21.484,16.113,-42.969
20.508,7.324,15.137,24.414,1.465
10.742,7.324,11.23,17.09,44.922
2.93,6.836,15.625,8.301,54.688
3.906,4.883,16.602,7.812,72.266
17.09,8.301,18.555,18.555,24.902
25.879,14.16,21.484,18.555,51.27
22.461,20.508,20.508,15.625,61.035
12.207,20.02,16.602,16.113,-3.906
20.508,13.184,17.09,13.672,35.645
39.551,14.648,22.461,17.578,89.844
39.551,14.16,17.578,20.508,24.414
29.297,10.742,14.648,22.949,17.578
22.461,14.16,8.789,22.949,65.43
19.531,17.09,0.977,8.789,41.504
24.414,14.16,9.277,6.836,-23.926
34.668,19.043,17.578,19.531,-32.715
26.367,22.461,12.695,14.648,18.066
11.23,18.066,2.93,3.906,-18.066
10.254,17.578,3.418,8.789,-8.789
23.438,20.996,9.766,12.207,54.199
33.203,25.391,12.695,14.16,41.992
23.926,25.879,14.16,11.719,-10.742
8.301,23.926,13.184,9.766,-17.578
8.301,26.367,5.859,13.672,11.719
23.926,35.156,13.184,17.09,-30.762
37.598,33.691,19.043,22.461,-18.555
27.344,23.926,17.578,25.391,-7.812
15.625,21.973,13.672,20.508,22.461
10.254,21.973,7.324,11.719,29.297
16.602,22.949,11.719,7.324,-24.414
28.809,22.461,20.02,10.742,12.207
22.949,14.648,13.672,14.16,39.062
13.672,16.113,6.836,14.16,79.102
11.719,21.973,3.906,6.348,80.566
21.973,20.508,5.371,5.371,50.781
36.621,19.531,12.695,22.461,22.949
26.367,20.02,12.695,25.879,15.625
10.254,20.996,7.324,21.484,-5.859
4.883,18.555,1.465,15.625,12.695
2.93,17.09,7.812,11.719,13.184
17.09,21.484,17.578,19.531,24.902
17.578,19.531,11.719,18.066,30.273
1.953,12.695,7.324,17.09,4.395
0.977,9.277,-1.953,18.066,28.809
3.906,8.789,2.441,6.348,28.809
17.09,11.23,9.766,10.254,-5.371
17.09,11.719,13.672,21.973,-29.297
1.953,12.695,15.625,20.508,-29.297
-2.93,19.043,8.301,19.043,-3.906
4.395,22.461,10.742,15.137,23.438
18.066,20.508,19.043,10.254,52.246
15.137,20.02,25.391,18.066,-19.043
8.789,21.484,27.344,20.508,-6.836
11.23,17.09,22.949,14.648,67.383
9.277,12.695,21.484,14.648,34.18
16.113,14.648,22.949,14.16,61.523
25.391,17.09,22.949,15.625,17.578
19.043,20.508,25.879,20.996,25.879
15.625,23.438,20.02,21.973,39.062
17.578,23.438,18.555,20.02,44.434
29.297,26.367,23.438,24.902,78.613
39.062,27.832,19.043,31.25,48.828
28.32,26.855,24.902,27.832,1.953
19.043,26.367,27.832,29.297,36.621
18.555,23.438,24.902,23.926,80.078
37.598,21.973,30.273,30.273,83.984
46.387,22.949,28.809,31.25,34.18
21.973,27.344,20.02,17.578,3.418
4.395,27.344,16.113,11.23,-7.324
-1.953,25.391,15.625,5.371,-15.625
5.859,33.203,20.02,3.906,27.344
21.973,38.574,27.832,0.977,53.711
18.066,34.668,23.438,10.742,11.719
8.301,32.715,15.137,12.207,11.23
4.883,34.18,11.23,1.953,44.434
14.16,39.062,15.625,1.953,-7.812
27.832,42.48,21.973,12.207,2.93
20.996,39.062,25.879,16.602,15.137
12.695,33.691,23.926,10.742,-5.859
5.859,30.273,14.648,6.348,37.109
10.254,32.715,16.113,8.301,56.641
24.414,37.598,23.438,15.625,68.359
18.555,36.133,22.949,27.832,29.297
11.719,35.156,23.438,26.367,52.246
9.766,34.18,15.137,13.184,57.617
13.672,33.203,19.043,18.555,0.977
22.949,34.18,27.344,23.438,9.277
20.02,36.621,23.438,19.531,28.809
5.859,35.156,21.484,12.207,-11.23
0.977,31.738,15.137,8.301,0.488
7.812,31.25,7.812,6.348,27.344
20.508,29.785,6.836,7.812,4.395
20.02,30.762,17.578,11.719,-13.672
13.184,28.809,28.32,9.766,3.418
5.859,22.949,20.508,5.371,-6.836
1.953,23.438,14.648,3.418,23.438
15.625,25.879,16.113,5.371,63.965
20.02,22.949,13.184,3.418,31.25
7.324,20.02,13.184,6.348,19.043
-3.418,19.043,5.371,8.301,52.246
-5.859,18.066,0,-3.906,77.148
10.742,17.09,12.695,2.93,58.105
22.949,15.137,21.973,8.789,83.008
15.625,11.719,21.484,4.395,2.93
8.789,17.09,14.16,5.371,-14.648
10.742,23.926,8.301,0,90.332
28.809,27.832,13.184,5.371,83.496
37.109,29.785,21.973,20.996,122.559
27.344,25.391,17.578,21.484,77.637
20.02,23.438,9.277,20.02,0.977
18.066,24.414,3.906,19.043,20.508
20.996,20.996,7.324,22.461,0
28.809,18.555,19.531,26.855,22.949
22.461,20.996,19.043,21.973,48.34
10.254,23.438,4.395,16.602,44.434
10.742,20.996,-1.465,13.184,81.055
23.926,20.02,9.277,18.555,21.973
38.086,20.02,15.625,22.461,-27.344
35.645,20.996,13.672,23.438,-4.395
22.461,21.484,13.184,26.855,11.23
18.066,18.066,3.418,21.484,49.805
25.879,19.043,8.301,11.719,19.043
36.621,21.973,25.879,14.16,-23.438
27.832,22.461,25.391,23.438,29.297
17.578,22.461,20.02,22.461,55.664
11.23,19.531,14.648,9.766,60.059
9.766,20.02,20.508,2.441,80.566
22.461,22.949,21.973,2.441,19.043
23.438,21.973,24.902,8.789,22.949
10.742,22.461,33.691,11.719,42.48
5.371,19.531,28.32,9.277,38.086
12.695,20.02,20.996,7.812,5.859
23.438,16.602,24.902,13.184,-20.996
22.461,15.137,26.855,21.973,-24.414
17.578,19.043,20.508,20.508,5.859
18.066,17.578,13.184,15.137,35.645
17.578,20.996,17.09,11.23,45.898
28.809,24.902,21.973,14.648,27.832
35.156,18.555,25.879,20.996,40.527
23.438,11.719,19.531,16.602,62.012
11.23,15.625,10.742,13.672,50.293
12.695,20.02,19.043,14.16,33.691
25.879,19.043,28.809,13.184,-41.016
23.926,19.531,25.879,17.578,2.93
12.695,17.578,24.414,21.973,4.395
8.301,20.02,28.32,15.625,-23.926
5.371,19.531,17.578,7.812,39.551
20.508,17.09,26.367,10.254,15.137
34.18,16.602,41.016,17.09,48.828
28.809,15.625,34.18,24.902,74.219
20.02,20.02,28.809,21.973,51.758
16.602,22.461,24.414,12.695,67.871
28.809,23.926,28.809,24.902,69.336
38.574,22.949,39.551,30.273,64.453
36.133,17.578,42.969,34.668,51.27
27.832,20.02,29.297,38.086,57.617
7.324,25.391,18.066,5.859,70.312
12.207,25.391,23.438,0.488,67.871
34.668,23.926,26.855,21.484,60.547
35.156,25.391,27.344,27.344,72.266
27.832,28.809,21.484,28.32,36.133
20.508,27.344,13.672,23.438,0
20.02,23.926,19.531,21.484,-9.277
39.062,24.902,16.602,28.32,-3.906
38.086,24.414,13.184,33.203,-16.113
19.043,24.414,18.555,28.809,17.09
15.137,23.438,1.953,18.066,74.219
17.578,25.391,-2.441,11.23,56.641
24.414,24.902,16.602,18.555,78.125
26.367,21.484,20.508,28.809,75.684
13.672,20.508,17.578,20.508,28.32
6.836,22.949,18.066,13.672,-4.395
11.719,24.902,20.508,9.277,36.133
23.438,20.02,27.832,18.555,-8.789
27.344,17.09,35.645,27.832,-35.645
17.578,20.508,31.738,22.461,62.5
3.418,18.066,15.625,13.672,21.484
-3.906,15.137,9.277,4.395,48.34
14.16,17.09,17.09,0.977,53.223
24.902,18.555,15.625,8.789,21.484
10.254,18.066,8.789,16.602,-22.949
5.859,17.09,1.465,15.137,-70.312
9.766,17.09,2.441,14.16,17.578
21.484,20.996,4.395,13.184,32.715
26.855,21.484,6.348,13.672,4.883
19.531,20.02,12.695,18.066,13.672
17.578,17.09,15.137,17.09,24.902
14.648,16.113,7.812,7.812,28.32
17.578,19.043,9.277,6.348,9.277
28.32,17.578,16.113,5.859,-30.762
22.461,16.602,15.625,8.789,-61.035
12.695,17.578,14.16,16.602,-3.418
7.812,15.625,6.348,6.348,7.324
12.207,11.719,11.23,-0.977,-21.484
29.785,18.555,16.113,10.254,10.254
23.926,22.949,12.695,16.602,24.414
10.254,18.066,8.301,14.16,-30.273
5.859,17.09,5.371,7.812,18.555
13.672,21.973,6.348,5.371,70.312
28.32,23.438,5.859,9.277,60.547
25.391,25.879,18.066,14.16,77.148
20.996,28.809,21.484,16.602,121.094
13.184,25.879,7.324,4.883,116.699
15.625,27.832,11.719,-0.977,123.535
32.715,30.762,22.949,15.137,47.852
26.367,27.344,32.715,19.043,-59.082
13.672,26.367,34.668,13.672,-1.953
14.648,27.832,22.461,14.648,78.125
16.113,26.367,22.949,12.695,50.781
22.949,22.949,29.297,11.719,-0.488
24.902,21.484,23.926,21.973,10.254
13.672,18.066,13.184,22.461,40.039
6.348,17.09,-0.977,16.602,55.176
10.254,20.02,-1.953,9.277,54.688
30.762,22.461,7.812,15.625,64.453
36.133,24.414,5.371,25.879,44.434
11.23,20.996,8.301,13.672,9.277
7.812,17.09,6.348,12.207,1.953
14.16,15.625,6.348,17.578,7.812
19.531,17.09,8.789,15.137,3.418
18.555,19.043,7.324,20.02,5.371
16.602,21.973,6.836,23.926,-5.859
15.625,24.902,4.395,20.02,-3.418
8.301,20.508,6.348,18.555,62.012
15.625,20.508,13.672,20.02,51.27
26.367,25.391,21.484,20.996,14.16
16.602,25.879,22.461,21.973,4.395
12.207,20.508,16.602,19.531,31.738
16.113,16.602,8.301,14.16,51.27
23.438,19.043,14.16,20.02,-24.414
37.598,19.531,29.297,27.344,-17.09
30.273,18.555,29.785,31.738,-1.953
12.207,14.648,21.973,27.832,19.043
1.953,13.184,14.16,12.695,21.484
7.812,16.602,20.02,15.137,22.461
20.996,19.531,26.367,24.414,18.555
19.043,19.531,25.879,21.484,24.902
11.719,17.578,21.973,16.602,55.664
10.742,16.602,13.672,12.695,57.617
19.531,18.555,21.973,13.184,32.227
28.809,22.461,34.18,21.484,10.254
25.879,21.973,22.461,19.043,-3.418
17.09,19.043,17.09,19.531,36.621
10.254,18.555,23.438,20.02,123.535
19.043,20.996,21.484,17.09,89.355
33.691,20.996,22.949,20.02,27.344
33.203,18.066,22.461,19.531,26.855
26.367,17.09,17.09,19.043,49.316
22.461,20.996,12.695,15.625,65.918
21.973,23.438,18.066,12.207,-54.199
32.715,21.973,25.879,13.672,-52.734
33.691,19.531,22.461,18.555,3.906
21.973,19.043,20.508,22.461,16.113
15.625,19.043,14.648,16.602,91.797
11.719,17.09,17.578,12.695,95.215
25.879,22.461,27.832,27.344,73.73
34.668,22.949,24.414,33.691,56.641
19.043,17.09,15.625,26.367,36.133
14.16,18.066,10.254,23.438,49.316
10.742,21.484,6.348,16.602,20.996
20.508,21.973,12.207,15.625,34.18
29.297,23.926,25.879,23.438,19.531
18.555,26.367,33.691,27.832,-9.277
14.648,20.02,23.438,23.926,-11.23
7.324,17.09,15.625,17.578,-14.648
10.742,20.996,28.32,24.414,59.57
23.438,21.973,27.344,29.297,62.988
19.043,23.926,14.648,22.949,57.129
7.812,25.879,4.395,15.625,43.457
5.859,27.832,5.371,8.789,-20.996
17.09,27.832,14.16,16.113,0.488
21.973,23.926,15.137,18.066,34.668
4.395,18.066,14.648,13.672,56.641
-6.836,17.09,8.789,13.184,19.043
0,20.996,2.441,10.254,-21.973
12.695,24.414,4.395,15.625,0.488
23.926,23.926,7.812,24.414,24.902
20.508,22.949,10.254,21.484,48.34
13.184,25.391,2.441,17.09,44.922
7.812,26.367,-8.301,19.531,-16.602
11.23,21.973,-0.977,20.508,9.766
28.32,17.09,9.277,27.344,38.574
32.227,15.137,7.324,30.762,-18.555
22.461,13.672,2.93,25.391,19.043
18.066,16.113,-12.695,17.578,60.547
21.484,15.137,-7.324,14.16,19.043
36.133,12.207,11.719,19.531,13.184
39.062,13.672,11.23,23.438,22.461
23.438,17.578,2.93,19.043,59.082
12.207,17.578,-3.906,13.184,32.715
10.254,16.602,-1.953,12.207,2.441
21.973,20.508,3.418,17.09,-1.953
24.414,29.297,10.254,20.02,-96.68
11.23,26.367,11.719,18.555,-94.238
3.906,23.438,11.719,16.602,-17.09
8.789,27.344,13.672,18.555,57.129
20.996,23.438,16.113,22.461,90.82
26.367,26.367,15.137,25.879,88.379
18.555,27.344,12.695,23.926,67.383
10.742,25.391,2.441,19.043,-0.488
11.719,28.32,0.488,20.02,21.484
24.414,30.273,14.648,27.344,44.922
32.227,29.297,23.438,29.297,67.871
22.461,28.32,24.414,27.832,30.762
16.602,23.926,20.996,28.809,19.043
10.254,15.625,20.02,20.996,78.125
20.996,15.625,20.508,18.555,55.664
32.715,16.113,21.973,24.902,70.312
19.043,17.09,17.578,21.484,116.699
9.277,16.113,5.371,12.207,50.781
9.277,14.16,1.465,10.742,-21.484
15.137,15.137,10.742,13.672,10.742
28.32,23.926,16.602,20.996,72.754
24.414,28.809,15.137,24.902,22.461
13.184,24.414,8.301,20.02,1.953
7.812,23.438,0.977,11.23,10.742
17.578,23.926,1.465,11.719,-12.695
36.621,22.949,9.277,25.879,-5.371
34.18,28.32,6.836,29.785,-21.973
20.508,26.367,0,22.949,-7.324
5.859,18.066,4.883,14.16,33.691
6.836,23.438,13.184,10.742,13.184
28.809,22.949,18.066,30.273,21.973
24.414,16.113,16.602,39.551,51.758
6.348,15.137,13.184,31.738,-12.207
3.418,11.719,12.207,29.297,22.461
15.625,13.672,9.277,34.18,24.902
38.086,18.555,18.555,38.086,39.551
42.969,20.02,18.066,36.621,67.871
32.227,23.438,14.16,34.668,54.199
25.391,22.949,15.625,30.273,31.738
23.438,22.461,9.766,22.461,-66.895
41.016,22.461,19.531,26.367,0.488
44.434,20.02,29.785,29.297,50.293
26.855,15.625,30.273,30.273,36.621
24.414,14.648,21.973,26.855,4.883
21.484,20.02,20.996,20.02,2.441
24.902,17.578,25.391,28.809,22.949
34.668,14.648,25.391,30.762,-23.438
22.949,17.578,18.555,23.926,-4.883
14.16,17.09,12.207,17.09,64.453
17.578,19.531,10.742,21.973,59.57
28.809,23.438,10.254,24.414,22.461
40.527,21.973,9.766,26.855,42.48
31.25,21.484,11.719,34.668,65.43
21.973,20.02,10.742,28.32,34.18
22.949,19.531,5.859,20.508,34.18
37.109,22.949,19.043,22.949,66.895
46.387,21.973,25.879,35.645,20.02
32.715,20.996,17.578,36.133,2.93
20.508,20.508,11.23,27.832,59.082
15.625,19.043,9.277,24.414,106.445
26.855,18.066,9.277,21.973,50.293
39.062,19.531,15.137,23.438,59.57
32.715,19.043,18.555,24.902,93.262
22.461,17.578,11.719,22.461,37.598
19.531,23.438,-1.953,12.207,15.625
30.762,29.785,6.836,15.137,6.836
42.969,33.203,23.926,20.02,-14.16
28.809,31.25,20.02,21.973,12.695
12.695,26.367,11.719,31.25,59.57
9.766,26.855,16.602,22.461,20.508
12.207,30.762,28.32,15.137,6.348
27.344,31.25,29.785,22.949,40.527
28.809,28.32,27.344,28.32,49.805
21.484,24.414,21.973,29.297,51.758
18.555,19.043,21.484,24.414,111.328
19.043,19.531,22.949,17.09,108.887
25.391,20.508,22.949,15.137,81.543
25.879,16.113,16.113,24.414,53.223
21.484,14.16,8.789,29.297,24.902
14.16,12.695,3.906,17.09,49.805
15.625,15.137,2.441,18.066,16.602
35.156,18.066,17.578,31.25,14.16
34.668,18.555,21.973,27.832,23.926
25.391,19.531,16.602,30.273,7.812
26.367,17.578,17.09,34.668,2.93
16.113,16.602,17.09,12.207,0
23.438,17.09,18.066,7.812,22.949
39.062,19.043,20.508,26.367,21.484
33.203,19.531,21.973,33.691,0.488
25.391,22.949,15.625,32.227,-8.789
21.973,28.32,7.812,22.949,37.598
37.109,27.344,9.277,31.738,38.086
47.363,24.902,16.602,41.504,-11.23
35.645,25.879,21.484,39.551,39.062
28.32,25.879,11.23,37.598,33.691
25.879,25.391,11.719,27.832,6.836
34.668,25.391,22.461,25.879,25.879
47.852,25.879,26.367,38.574,-2.93
44.434,21.973,28.32,41.016,-16.113
26.367,15.625,23.926,27.832,10.254
10.254,13.184,22.461,20.02,54.688
25.879,14.648,35.156,31.738,2.93
41.016,11.719,47.852,38.086,-22.949
26.855,11.719,38.574,29.297,-29.785
19.531,13.672,25.879,22.461,-70.801
18.555,9.766,21.973,12.207,-51.27
19.043,9.766,20.996,6.836,-45.898
34.668,15.137,27.344,17.09,-6.348
32.715,13.672,29.785,23.438,4.395
16.602,15.625,19.043,17.09,-8.301
16.602,19.043,14.648,11.23,53.223
29.785,20.508,19.531,15.625,69.824
45.898,20.508,22.949,17.09,20.996
40.039,17.09,21.973,15.137,-26.855
27.344,13.184,11.23,18.555,25.879
27.344,9.766,3.906,18.555,75.684
29.297,10.254,12.207,14.648,57.129
38.574,10.742,18.066,21.973,28.809
39.551,12.207,18.555,24.902,-20.02
25.391,13.672,17.09,16.113,-3.418
18.066,18.555,14.648,11.23,6.836
19.043,20.996,16.602,11.23,-18.066
25.879,20.508,20.996,18.066,38.574
27.832,20.996,22.461,22.461,57.129
22.461,20.02,21.484,21.484,55.176
14.16,20.02,11.23,13.672,79.102
8.789,19.043,10.742,8.301,49.805
26.367,17.09,25.391,18.066,36.621
34.18,17.09,24.902,27.344,58.105
18.066,13.184,15.137,22.461,35.156
12.695,14.16,7.324,22.461,40.039
16.602,18.066,10.742,21.973,52.246
26.855,21.484,21.484,17.578,17.578
28.32,21.973,30.273,21.484,6.836
9.766,13.184,30.762,21.484,55.176
2.93,10.254,24.902,19.531,45.41
5.859,12.695,27.832,18.555,19.531
14.16,11.23,37.109,21.484,52.246
28.32,11.23,36.133,28.809,45.41
20.02,15.625,27.832,34.18,60.059
9.277,15.625,15.137,26.855,22.461
9.766,16.602,16.602,16.602,-3.418
20.508,16.113,28.32,19.043,56.641
30.762,11.719,32.227,21.973,81.543
26.367,16.602,20.508,21.973,24.902
14.16,17.09,12.207,22.461,-37.598
6.836,11.23,20.996,12.695,27.832
15.137,13.184,15.625,4.883,10.254
33.203,15.137,10.742,15.625,-33.203
35.156,17.09,22.461,23.926,60.059
25.391,19.531,15.137,22.949,21.484
15.625,18.066,4.395,18.066,-37.109
19.531,20.02,14.648,18.066,16.113
32.227,21.973,19.531,22.949,64.453
27.832,22.461,17.578,25.879,18.555
18.555,24.902,11.719,25.391,7.324
10.254,22.461,2.441,20.508,29.297
10.254,17.578,1.953,14.16,-8.301
24.414,17.578,8.789,18.555,2.93
32.227,22.949,16.602,29.785,45.41
19.043,25.879,13.184,23.926,32.715
9.277,21.973,6.836,18.066,29.297
12.695,22.949,3.906,17.09,50.293
22.949,25.391,5.371,16.113,10.254
28.809,28.809,8.789,22.949,5.371
25.391,31.25,5.371,23.926,39.062
19.043,30.762,1.465,13.672,4.395
17.09,29.785,3.906,10.742,27.832
31.25,27.344,9.277,16.602,40.527
36.621,28.809,9.766,24.902,13.672
27.344,29.785,2.441,30.273,50.293
20.508,30.762,-12.695,23.926,17.578
25.391,31.738,-12.695,20.02,36.621
40.039,31.738,-1.953,29.785,60.059
41.992,30.762,7.324,31.25,27.344
22.949,29.297,9.766,22.949,53.223
8.301,27.344,-3.906,12.695,82.52
6.836,29.297,-8.301,4.883,71.289
16.113,29.785,6.836,10.254,4.883
25.879,26.367,9.766,19.043,-32.715
15.625,24.414,7.324,21.973,-37.598
7.324,23.926,16.602,20.996,-12.207
5.371,21.973,12.695,18.555,35.645
18.555,25.391,9.277,18.555,70.312
32.227,29.297,18.066,28.809,87.402
23.438,25.391,20.02,29.785,75.195
17.09,20.996,12.207,21.484,81.055
11.719,23.438,5.859,12.695,79.59
17.578,22.461,13.672,13.184,42.969
28.809,19.531,20.02,20.508,25.391
20.996,20.996,23.926,23.438,41.992
17.09,20.02,20.02,23.926,20.996
17.578,16.602,14.648,12.695,26.855
16.602,16.602,16.602,4.395,-4.395
28.32,16.602,20.02,15.137,24.414
26.855,13.672,15.625,19.531,1.465
15.137,11.23,6.348,15.625,-35.156
7.324,9.277,1.465,12.695,-5.371
9.766,7.324,6.348,15.137,-18.555
21.973,9.766,8.301,29.297,37.109
23.438,15.137,10.254,36.133,27.344
18.555,16.602,20.02,31.25,58.594
12.207,19.531,18.555,21.484,78.125
13.672,23.926,23.926,16.113,-10.254
31.25,22.461,33.203,25.879,-55.664
31.738,22.949,28.32,32.227,12.207
12.695,22.461,16.602,26.367,47.363
6.836,20.996,11.23,20.508,14.16
9.766,21.484,13.672,12.207,65.43
28.809,19.531,18.555,12.695,122.07
33.203,17.578,16.113,18.555,72.266
19.531,20.996,13.672,18.555,20.02
18.555,23.926,10.254,17.578,28.809
16.113,23.438,7.324,12.695,50.293
23.926,23.438,14.16,15.625,79.102
32.715,19.531,17.578,23.926,57.617
24.414,18.555,19.531,25.391,67.871
23.438,21.973,21.484,23.926,49.805
25.879,22.461,20.508,20.508,4.395
40.527,21.484,25.391,23.926,6.836
53.711,23.926,34.18,35.645,3.906
41.016,25.391,35.156,32.227,17.578
32.227,21.484,22.461,19.531,15.625
23.926,18.066,16.113,15.137,20.02
23.926,16.602,28.32,13.184,30.273
32.227,15.137,36.133,17.09,62.5
27.344,15.625,35.156,22.461,30.762
20.02,18.555,30.273,19.043,-11.719
13.184,23.438,29.297,16.113,-12.695
19.531,29.297,35.156,15.137,-22.949
39.062,32.227,31.25,23.438,46.387
32.227,30.762,26.855,27.344,59.082
21.973,29.297,20.02,26.855,76.172
19.043,27.832,12.695,22.461,71.289
20.02,25.391,21.973,17.578,24.902
38.086,25.879,25.879,24.414,5.371
38.086,30.273,26.367,26.367,43.945
25.879,34.18,19.043,25.391,63.965
21.973,34.668,9.277,22.461,15.137
24.902,32.715,12.695,16.113,27.344
39.551,36.621,20.996,19.531,27.832
38.086,39.551,27.344,28.809,48.34
20.508,34.668,22.461,26.367,91.309
11.23,30.762,13.672,21.484,44.922
15.137,29.297,18.066,21.484,17.09
29.785,31.738,29.785,23.438,2.93
28.32,31.738,39.551,26.855,-4.883
15.137,28.32,40.527,24.414,51.27
19.043,26.367,27.344,20.02,60.547
23.438,25.879,25.391,12.207,66.895
27.344,25.879,30.762,13.184,67.871
32.715,25.391,33.691,21.973,66.406
26.367,21.484,32.227,21.973,38.086
14.16,19.531,19.043,11.719,29.297
10.254,21.484,12.695,4.883,28.809
24.414,22.949,16.113,14.16,5.371
34.18,25.391,27.344,22.949,18.066
20.508,26.367,33.203,20.996,51.27
12.695,24.414,21.973,19.043,59.082
15.137,22.949,14.16,18.555,36.133
19.531,23.926,16.113,20.996,15.625
28.809,26.855,19.043,22.461,5.859
20.508,24.414,19.043,23.438,48.34
7.812,21.973,13.184,18.066,49.316
6.836,23.438,12.207,7.812,0.977
14.16,20.508,23.438,8.789,11.719
23.926,19.043,22.949,18.066,5.371
20.508,22.949,16.113,25.391,-52.246
12.207,22.949,12.695,22.461,0.488
6.836,20.508,10.254,12.695,59.082
9.277,18.066,12.207,11.23,8.301
27.344,18.555,13.184,22.949,23.438
25.391,18.555,14.648,27.344,52.246
13.672,19.531,12.207,23.438,44.922
12.207,19.531,5.371,21.484,41.992
16.113,22.461,1.953,18.555,31.738
27.832,25.879,5.371,21.973,56.152
27.344,25.391,10.254,28.809,56.152
17.09,24.414,4.395,25.879,73.73
6.836,23.438,-7.812,19.043,29.297
10.742,25.879,-5.371,15.625,-41.504
24.902,28.809,6.348,17.578,-13.672
25.391,26.855,17.09,26.367,-17.09
16.113,25.391,19.043,30.762,-8.789
11.719,25.879,13.672,27.344,8.301
11.23,27.832,17.578,23.438,54.199
20.508,31.738,21.484,23.926,50.781
33.203,32.227,24.414,29.297,34.668
21.484,30.273,20.02,31.738,18.066
9.277,31.25,10.742,28.809,21.484
11.719,32.227,11.719,24.902,6.348
26.855,30.273,21.973,33.691,-24.414
37.598,33.203,33.203,43.945,-10.742
23.926,33.691,36.621,40.039,16.113
16.602,30.762,19.531,29.297,0.977
20.996,26.855,14.648,24.902,-19.531
41.016,22.461,27.344,40.039,-2.441
60.547,29.785,29.785,51.27,8.301
27.832,34.18,30.762,20.02,36.621
-0.977,29.785,24.902,0,67.383
-2.441,29.297,15.625,-1.465,73.242
0.488,33.203,21.973,-4.395,63.477
-0.488,35.645,23.438,-8.789,45.898
-12.695,34.18,6.836,-7.812,-2.441
-20.02,33.203,2.441,-5.859,-8.301
-26.855,28.809,11.719,-21.973,13.672
-11.719,26.855,22.461,-10.254,22.461
9.766,25.391,26.855,-0.977,-2.441
6.348,25.879,25.879,1.953,-27.832
2.93,29.297,19.043,5.859,1.465
1.953,32.227,16.113,4.883,47.852
11.23,33.691,18.066,6.836,62.5
28.809,30.762,20.02,6.348,25.879
20.02,21.973,27.832,7.324,-8.301
6.348,15.137,25.879,2.93,-31.25
0,20.996,17.578,-2.441,-45.898
1.953,25.879,17.578,2.441,-67.871
19.531,22.949,25.391,6.836,-88.379
18.066,26.855,33.691,7.812,-96.191
10.742,27.832,31.25,11.23,-46.875
5.859,29.297,26.367,5.859,-18.555
3.906,31.738,31.25,5.859,10.254
19.531,29.297,33.691,13.184,66.895
28.32,27.344,31.25,15.625,21.484
18.555,23.438,24.902,15.137,0.977
9.766,24.902,23.926,9.766,-3.418
8.789,27.344,31.738,6.348,-30.762
21.973,29.785,33.691,10.254,8.301
26.855,28.809,36.621,17.09,45.41
19.043,24.414,37.598,20.996,84.961
15.137,26.855,28.32,17.578,55.664
11.719,31.25,21.973,15.137,41.992
22.461,31.25,18.066,17.578,36.621
27.344,32.715,25.879,20.02,66.406
18.066,33.203,27.832,21.484,90.332
11.719,31.25,11.23,19.043,61.035
9.277,29.785,10.254,16.113,53.223
20.996,30.273,23.438,14.16,85.449
27.832,27.832,26.367,19.043,82.52
16.113,23.926,20.02,20.508,25.391
9.277,23.438,14.16,11.23,77.637
2.441,21.484,15.625,9.766,27.344
0.977,20.02,29.785,11.719,43.945
18.555,19.531,40.039,9.766,137.207
19.043,19.531,33.691,14.648,74.219
5.859,20.02,28.32,13.184,66.406
1.465,21.973,27.344,6.836,70.801
10.254,23.438,27.832,8.789,55.664
24.902,22.461,32.715,12.695,36.621
18.555,23.438,36.133,16.113,34.668
9.766,22.949,30.762,17.578,90.82
7.812,21.973,18.555,16.113,47.363
16.113,29.785,24.414,20.996,68.359
33.691,38.086,30.762,27.344,96.68
31.25,38.086,30.762,25.879,-11.23
22.461,33.691,29.297,25.879,2.441
12.695,33.691,21.973,17.578,12.207
10.254,39.062,27.832,14.16,36.621
28.809,39.551,28.809,16.113,74.707
29.785,36.621,28.32,19.531,17.09
12.695,36.133,25.879,19.043,-3.418
9.277,36.133,21.973,11.719,40.527
19.043,34.668,26.367,13.672,43.945
32.715,32.715,32.227,21.484,40.039
33.203,32.227,34.668,29.785,114.746
20.02,30.762,29.297,25.879,97.168
14.16,29.785,20.02,14.648,43.457
14.16,28.32,23.438,9.277,24.902
26.855,25.391,25.391,10.742,-0.488
32.227,22.949,24.414,16.602,28.32
21.973,20.996,20.508,20.996,64.453
18.555,20.508,11.23,17.09,34.18
16.113,23.926,13.184,11.719,28.32
28.809,25.879,17.578,14.648,-17.09
41.992,26.367,21.484,16.602,-55.664
29.785,26.855,19.043,18.555,-35.645
15.625,25.391,14.16,15.625,26.855
8.301,21.484,13.672,9.766,48.828
18.555,21.484,15.137,7.324,31.738
28.32,22.461,24.414,10.742,76.66
19.531,19.043,22.949,14.648,72.754
12.207,16.602,17.578,4.883,37.598
11.23,12.695,17.578,-3.418,38.086
20.508,12.207,17.09,0.488,42.48
32.227,16.602,19.043,4.395,28.32
33.691,21.973,11.719,6.348,19.043
41.504,21.973,-0.488,19.043,-8.301
28.809,16.602,10.742,16.602,10.254
10.742,11.719,33.691,5.371,60.059
18.066,7.324,40.527,13.672,112.305
24.414,7.812,27.344,28.32,96.68
20.02,9.277,14.16,25.879,41.504
8.301,4.883,15.137,9.277,-2.441
9.766,5.371,20.02,12.695,23.926
23.438,9.277,21.973,19.531,58.105
25.879,12.207,23.438,20.996,24.414
18.555,12.207,15.137,19.531,51.758
9.277,8.789,7.324,14.648,38.574
11.719,8.789,8.301,9.766,55.664
24.902,11.719,3.906,13.184,33.203
20.996,13.672,12.207,22.461,-58.594
10.254,15.625,16.113,26.367,-47.363
12.695,22.949,12.207,23.926,-67.383
19.531,21.973,26.367,20.02,-18.066
33.691,14.16,25.879,21.973,41.016
33.203,12.695,27.832,25.391,28.32
19.531,12.207,28.32,20.508,51.758
14.648,13.672,22.461,16.113,4.883
17.09,19.531,21.973,17.09,-15.625
27.344,20.02,22.949,21.973,36.621
31.25,19.531,26.367,25.879,29.785
18.066,20.508,19.531,21.484,7.324
6.836,17.09,12.695,19.043,-22.949
11.23,20.02,17.578,17.578,-41.504
26.367,21.484,15.625,21.484,-36.133
32.715,13.184,15.137,30.762,-17.09
24.902,13.672,16.602,27.344,36.621
18.555,18.555,17.09,27.344,8.301
17.578,20.508,19.043,24.414,1.953
28.32,22.461,16.113,23.926,31.25
37.109,20.996,21.973,32.715,7.812
23.926,18.555,24.414,37.109,26.855
14.648,18.555,21.973,27.344,57.129
17.578,14.648,18.555,21.973,62.988
20.02,11.23,14.648,24.902,42.48
29.785,14.16,15.137,21.484,-24.414
27.344,18.066,17.578,24.414,-11.719
13.672,13.672,9.766,16.602,20.996
8.789,12.695,7.324,7.324,24.902
15.137,17.09,15.625,11.23,99.121
29.785,18.555,22.949,19.043,164.551
30.762,20.996,24.414,21.484,80.566
20.508,21.973,15.625,15.625,21.973
13.184,20.996,12.695,11.23,50.781
14.16,16.113,16.113,10.742,68.359
27.832,15.625,19.043,15.137,15.137
31.738,24.902,24.414,23.926,-25.391
14.648,22.949,19.043,21.484,-17.09
4.883,15.137,15.137,11.23,10.254
10.254,15.625,20.508,13.184,73.73
26.855,20.02,20.996,17.578,50.293
33.203,20.996,24.414,16.113,60.547
25.391,19.043,15.625,13.672,99.609
25.391,20.02,5.859,14.16,11.719
30.762,23.926,14.16,15.625,-41.504
41.992,22.949,22.461,18.555,-33.203
48.34,24.902,31.738,25.879,38.086
34.18,25.391,22.461,21.484,42.48
17.09,25.879,12.207,17.578,15.137
13.672,29.297,12.695,20.996,-0.488
26.855,29.297,10.742,24.414,-57.617
32.715,25.879,18.066,29.297,-32.227
22.949,23.926,11.23,27.832,16.602
14.648,23.926,3.418,19.043,53.223
13.672,28.32,10.254,14.648,62.012
25.879,29.785,17.578,20.996,25.391
39.062,28.32,26.855,37.598,41.992
26.855,30.762,22.949,34.18,19.531
1.465,34.18,8.301,5.371,1.465
-4.395,35.156,-3.906,-7.812,14.648
5.859,28.809,-4.883,-0.977,-35.645
8.789,27.832,5.371,2.441,-40.039
-1.953,29.785,2.441,0,18.066
-9.766,25.391,-5.859,-6.348,8.789
-14.648,24.902,-1.953,-10.254,-9.766
-3.418,24.902,2.441,-0.977,32.715
16.113,22.461,1.465,3.418,15.137
10.254,24.414,6.836,2.93,44.434
0,26.855,9.277,3.418,33.203
3.418,27.344,4.883,3.906,2.93
14.16,24.414,1.953,4.883,10.254
27.344,22.461,3.906,3.418,-8.789
20.508,26.855,10.254,12.207,11.23
3.906,24.902,1.953,12.695,27.344
-1.953,18.066,-2.441,6.348,-11.23
4.883,20.02,11.719,6.836,-52.734
24.414,25.391,13.672,11.719,11.23
28.32,28.809,4.883,10.254,54.688
20.02,30.273,0,12.695,35.156
12.207,28.32,1.465,19.043,11.23
16.602,28.809,0.977,15.625,0.488
33.203,27.344,3.906,16.602,46.387
30.762,23.926,13.184,25.391,64.941
15.625,24.902,-2.93,18.555,-11.23
10.742,28.32,-9.277,11.719,0.488
18.555,29.297,4.395,11.719,35.156
31.738,30.273,6.348,17.578,39.551
29.785,28.809,8.301,20.02,63.477
19.531,25.391,7.812,21.484,63.477
16.602,25.391,9.766,23.438,69.824
15.137,24.902,15.625,16.113,59.57
28.809,29.297,19.043,22.461,41.016
39.062,32.227,27.344,32.715,36.621
29.297,25.879,25.391,24.414,80.078
19.043,23.926,15.137,15.137,43.945
9.766,25.391,13.184,6.836,71.777
20.508,24.414,14.648,7.324,103.027
34.668,22.461,20.02,17.578,31.738
25.391,16.602,20.996,20.996,20.996
15.625,15.137,14.648,17.09,26.367
13.184,15.625,14.648,6.836,14.648
24.902,15.137,24.414,8.789,20.508
37.109,19.043,29.785,20.02,23.926
22.949,17.09,21.973,17.578,-43.945
16.602,14.648,4.883,12.695,-22.461
16.113,17.09,4.883,7.812,21.973
19.043,20.996,14.648,10.742,30.762
35.156,21.484,19.043,17.578,65.918
32.715,22.461,25.879,24.414,60.547
20.996,24.414,19.531,22.461,45.898
19.043,29.785,19.043,15.625,41.016
27.832,30.273,30.273,18.066,51.758
38.086,28.809,32.715,26.367,13.672
34.668,32.227,34.668,29.297,-45.898
24.902,29.785,27.832,25.879,-34.668
21.484,28.809,15.137,24.414,7.812
31.738,31.738,0.977,26.367,55.176
48.828,31.25,7.324,31.25,8.301
37.109,25.879,29.785,27.832,-31.25
20.02,23.926,24.414,21.484,11.719
20.508,26.855,20.996,21.484,85.449
19.531,24.414,23.926,14.16,68.848
29.785,22.461,25.391,12.207,50.293
28.809,21.484,29.297,19.531,64.453
11.719,17.578,20.508,21.484,29.785
6.348,16.602,21.973,12.207,-19.043
10.254,19.043,27.832,8.301,33.691
23.438,21.973,23.438,15.137,34.18
28.32,25.879,28.32,20.508,39.062
13.184,26.367,21.973,15.137,48.828
5.371,29.297,19.043,13.184,38.574
8.301,32.227,21.973,10.742,36.133
20.02,29.297,17.09,11.23,19.043
26.367,26.367,22.461,19.043,-8.789
17.09,25.879,18.066,19.531,38.574
16.113,27.832,8.301,12.207,74.219
19.531,29.785,19.531,16.602,49.805
22.949,25.391,21.484,18.555,40.039
32.227,25.391,18.066,25.879,57.617
21.973,30.762,18.066,32.227,55.176
8.789,32.227,18.555,26.367,22.949
6.348,26.855,14.648,20.996,-60.547
15.137,23.438,12.207,22.949,-41.016
27.832,25.879,19.531,26.367,38.574
20.996,25.879,19.043,26.855,41.016
8.301,22.461,14.16,21.484,73.242
5.859,20.996,19.531,12.695,72.754
18.066,21.973,25.879,16.602,62.012
34.18,22.949,21.484,27.344,31.738
24.414,23.438,19.531,33.691,40.527
10.742,20.508,19.531,25.391,34.668
11.719,18.555,19.531,19.531,-7.324
15.625,16.602,12.695,19.043,76.66
28.32,16.113,11.23,19.043,57.617
24.414,20.996,16.113,20.996,16.113
7.812,20.02,7.812,17.09,83.496
2.441,15.625,2.441,10.254,34.18
9.277,15.625,8.301,14.16,8.789
24.414,15.137,14.16,17.09,20.02
25.879,17.578,15.137,22.949,2.93
14.648,23.438,11.23,26.855,-9.277
12.207,26.367,11.23,20.996,1.953
17.09,30.273,14.16,23.926,26.367
29.785,33.203,18.555,25.879,26.855
34.668,29.785,26.855,28.32,53.711
19.531,24.414,21.484,27.832,27.832
10.742,25.391,12.207,23.926,-5.859
9.766,27.344,17.578,18.066,69.336
20.508,28.32,18.066,16.113,81.055
25.879,29.297,21.973,28.32,12.207
15.137,25.879,10.742,29.297,-7.324
11.23,24.902,6.348,13.184,-22.949
12.695,25.879,21.973,12.207,-3.418
26.367,25.879,21.973,20.508,41.504
39.551,28.809,21.973,28.32,25.391
30.762,27.832,17.09,31.25,32.715
21.973,27.832,8.301,26.367,89.355
21.484,28.32,7.812,18.066,83.008
26.855,24.902,14.648,16.602,54.199
35.645,23.438,22.461,19.531,-15.137
29.785,22.461,18.066,22.461,-20.996
17.578,20.996,7.324,19.043,11.23
14.16,24.902,12.695,18.066,64.453
22.461,25.879,17.578,21.484,72.266
31.25,20.02,18.066,20.02,41.504
29.297,20.508,15.625,22.461,35.156
23.926,24.902,7.324,22.949,-11.719
18.555,25.391,8.301,17.578,-18.555
28.809,28.32,19.043,16.602,-35.645
39.551,28.809,22.949,23.926,-29.785
25.879,23.926,16.602,24.414,19.043
20.02,21.973,8.789,20.02,45.41
12.695,22.461,7.812,12.695,-20.996
13.184,27.832,6.348,5.371,-27.832
44.434,30.273,2.93,18.066,30.273
48.34,24.902,6.836,36.621,40.039
16.602,15.137,5.371,21.484,-9.277
-11.719,6.348,6.348,-3.418,-10.742
-9.766,3.418,12.207,-5.859,76.172
12.207,2.441,15.625,3.906,70.801
16.113,0.488,23.926,10.254,72.266
5.371,-1.465,25.391,12.207,60.059
-6.836,-5.371,25.879,7.812,-34.18
-0.977,-2.93,24.902,10.254,-11.719
15.625,1.953,31.25,7.812,58.105
14.16,2.441,33.203,4.883,47.363
-0.488,2.93,17.578,12.207,21.973
-1.465,7.324,11.23,12.695,55.176
2.441,4.883,21.484,12.207,55.176
8.301,2.93,23.438,16.113,23.438
17.578,5.371,26.367,21.973,49.805
9.766,4.395,23.926,22.949,50.781
1.953,5.371,19.531,19.043,4.883
-0.488,3.906,20.996,14.648,28.809
10.254,1.953,23.926,15.625,16.113
20.02,5.859,26.367,24.902,-23.438
13.184,9.766,23.438,27.832,17.578
7.324,13.184,24.902,26.367,13.672
3.418,15.625,26.855,24.414,0
14.16,20.508,28.32,20.02,26.367
25.391,23.926,29.785,16.602,-1.953
17.578,23.438,20.508,17.578,1.465
11.23,26.855,20.02,18.555,65.918
10.254,29.785,26.367,15.625,26.855
21.973,31.25,23.438,16.602,-11.719
35.156,28.32,25.879,19.531,60.059
25.391,25.879,22.949,20.996,133.789
16.113,24.902,11.23,20.996,45.898
15.625,26.367,12.695,16.113,-48.34
24.414,27.344,19.531,18.066,13.672
39.551,25.391,22.461,26.367,14.16
35.156,27.832,26.367,30.273,-41.504
26.367,29.297,20.508,27.344,-29.785
25.391,25.879,17.578,22.461,33.691
29.785,23.438,16.602,18.555,26.855
43.457,23.438,18.555,21.973,13.672
44.434,25.391,28.32,30.762,67.383
32.715,25.391,27.832,27.832,96.68
27.832,22.461,24.414,20.508,40.039
33.203,21.484,27.344,22.461,-0.488
41.016,24.414,28.32,23.926,5.371
35.156,24.414,30.762,25.879,-49.805
18.555,21.484,20.02,26.367,-36.621
7.812,20.508,16.113,17.578,10.254
13.184,19.531,21.484,19.043,0
22.461,18.066,18.066,26.367,49.316
23.926,22.949,18.066,28.32,59.082
16.602,24.902,13.184,27.832,-17.09
3.906,20.996,11.719,23.438,14.648
0.977,17.578,12.695,16.602,43.945
15.137,15.625,9.766,14.648,20.02
23.438,15.625,13.672,16.602,16.602
12.695,17.09,16.602,20.02,56.641
6.348,20.508,14.648,20.508,48.34
10.254,20.996,16.113,12.695,31.738
27.344,20.996,20.508,13.184,36.133
35.156,19.531,20.996,21.484,-12.207
20.02,15.137,11.23,16.602,2.93
11.23,13.672,5.371,10.254,27.344
8.789,14.648,3.418,6.348,54.199
16.113,15.625,4.395,9.766,100.098
34.668,20.02,15.625,20.996,39.551
31.25,24.414,17.578,19.531,41.504
10.254,22.949,4.883,10.742,84.961
7.812,21.484,3.418,6.348,29.785
21.973,20.996,13.672,10.742,34.668
32.715,24.902,22.461,21.484,89.355
28.32,31.738,19.531,27.344,85.449
18.066,29.785,13.672,25.879,41.992
10.254,28.32,10.742,17.578,2.441
16.113,28.809,3.906,14.648,2.93
32.227,27.344,9.277,14.648,19.531
27.344,26.855,15.625,17.578,54.199
16.113,27.832,20.02,22.949,93.262
16.113,25.879,20.996,22.461,116.211
22.949,21.973,14.648,19.531,62.5
33.203,21.973,21.973,20.996,22.949
23.926,21.484,25.391,21.484,-15.625
11.719,18.066,26.367,15.625,9.277
10.254,13.672,22.461,18.066,47.363
11.23,11.719,18.066,17.09,22.949
26.367,11.719,27.344,18.066,21.484
28.809,17.09,31.738,25.391,0.977
16.602,22.461,20.996,21.973,-3.906
12.695,21.484,20.996,16.602,6.836
14.16,19.043,24.414,13.672,-31.738
32.227,20.508,21.484,17.578,11.23
35.156,21.484,27.344,22.949,86.914
20.02,18.555,16.113,20.508,56.641
15.137,16.602,11.23,14.16,-22.949
17.09,14.16,25.391,10.254,-11.719
29.785,9.766,27.832,18.066,77.148
31.25,8.789,27.344,23.926,68.359
18.555,6.348,20.996,22.461,65.43
14.16,8.301,15.137,19.043,73.242
11.719,12.207,15.625,17.578,41.016
22.949,12.695,14.16,17.578,34.18
30.762,13.672,18.555,22.461,50.293
22.949,11.719,20.508,23.438,-9.277
19.043,14.648,15.625,20.996,-68.848
17.09,21.484,16.113,21.973,-11.719
23.926,23.926,19.531,23.438,44.922
30.762,27.344,27.344,31.738,-5.371
25.879,25.391,26.855,24.902,-8.301
18.555,25.879,29.297,19.043,63.477
6.836,28.32,26.367,13.672,40.527
13.672,25.879,20.02,5.859,54.688
26.367,24.902,31.738,14.16,68.359
18.555,20.508,25.391,15.625,0
10.742,18.066,19.531,10.742,-17.578
11.719,21.973,20.996,8.301,-11.23
16.113,27.344,15.625,11.23,-28.809
29.785,27.832,25.391,16.602,27.344
31.738,27.344,29.297,19.531,83.008
23.438,26.367,21.484,18.555,119.141
18.066,23.926,14.16,18.555,68.848
22.949,24.414,14.16,23.926,-22.949
40.039,26.855,24.414,26.367,-26.855
42.969,26.855,26.855,26.855,46.387
32.227,20.02,12.207,22.461,28.809
20.508,21.484,4.883,12.695,-41.504
25.879,27.832,15.625,12.695,8.301
37.598,27.832,20.996,20.02,34.668
32.227,25.879,20.02,31.25,-20.996
23.438,23.438,16.602,30.273,-13.672
16.113,25.391,18.066,23.438,36.621
20.02,27.832,20.996,23.438,30.273
33.691,27.344,22.949,23.438,37.109
35.645,26.367,26.855,30.762,95.703
27.832,26.855,22.461,33.203,60.059
15.625,24.902,18.555,22.461,40.039
10.742,23.438,15.625,15.625,64.941
20.996,22.461,10.742,10.254,37.598
34.668,24.414,13.184,11.23,7.324
22.949,22.949,11.23,13.672,20.02
6.836,17.578,0.977,7.812,5.859
3.418,15.625,-2.441,-0.977,60.547
17.09,13.184,10.254,3.906,105.957
29.785,11.23,25.879,12.695,35.645
19.043,12.695,18.555,8.789,-8.789
8.789,11.719,11.23,7.324,26.367
6.836,12.207,14.648,6.348,7.324
14.16,12.695,13.672,9.277,8.301
24.902,14.16,15.625,18.066,35.645
21.973,13.184,2.93,20.508,-10.742
18.555,10.254,-4.395,16.113,-21.973
11.23,15.625,12.695,9.766,42.969
12.207,15.625,11.23,8.789,32.227
25.391,16.113,12.695,14.16,24.414
20.508,19.043,18.555,19.531,48.828
8.301,19.531,8.789,11.23,49.316
0.488,21.973,11.23,-1.953,57.617
-0.488,18.555,16.113,-8.301,32.227
5.859,17.578,20.996,-10.254,39.062
4.883,17.09,22.949,-9.277,10.254
-3.906,15.137,27.344,-12.695,61.523
-13.184,10.254,31.25,-13.672,91.309
-7.324,8.301,31.738,-10.742,33.691
-4.883,9.277,33.691,-20.996,51.758
-21.484,8.789,33.203,-28.32,31.738
-34.18,10.254,24.902,-37.598,37.109
-41.504,13.184,21.973,-53.711,49.316
-43.457,16.113,25.879,-57.617,32.715
-32.715,18.555,29.785,-52.734,33.691
-37.109,16.602,37.598,-48.34,66.895
-54.688,16.113,33.203,-53.711,61.035
-61.523,20.02,24.902,-62.012,37.598
-62.012,22.461,24.414,-66.895,-6.348
-52.734,22.461,33.691,-65.918,-6.348
-53.223,21.484,40.039,-62.5,80.566
-65.43,20.02,31.738,-62.988,76.66
-73.242,18.066,26.855,-67.383,25.879
-74.707,18.555,27.832,-75.684,16.602
-61.035,21.484,29.297,-79.59,-7.812
-55.664,21.484,46.387,-74.707,-9.277
-64.941,16.602,42.48,-74.219,20.996
-73.73,20.508,36.133,-85.938,46.387
-83.496,23.926,40.039,-96.191,-9.277
-65.918,18.555,35.156,-87.891,-78.125
-54.199,20.02,35.645,-86.914,-43.457
-66.406,23.438,29.297,-92.773,45.41
-70.801,26.367,26.367,-86.914,-14.648
-74.707,27.832,27.832,-91.309,-51.758
-70.801,31.738,26.855,-99.121,21.973
-55.664,35.156,33.691,-90.82,72.754
-52.246,32.715,28.809,-77.637,59.57
-62.988,32.715,16.113,-78.613,-7.812
-73.242,32.715,20.02,-92.285,32.227
-55.176,34.668,17.578,-78.613,54.688
-29.297,39.062,19.531,-57.129,59.57
-39.551,39.062,13.184,-57.129,48.828
-46.387,39.551,-0.488,-56.152,34.668
-35.156,41.992,-2.93,-51.27,13.184
-16.113,40.527,0.977,-41.992,68.359
-0.488,32.227,11.719,-27.344,53.223
-6.836,26.367,10.742,-20.508,6.348
-8.789,24.902,4.883,-13.672,58.105
-10.742,20.508,4.395,-13.672,24.902
0,18.066,4.395,-13.184,-1.465
22.949,16.602,18.555,0.977,-1.953
24.414,17.578,17.09,9.766,10.254
24.902,17.578,7.324,16.602,44.922
16.113,11.719,14.16,15.625,6.836
14.16,9.277,12.207,10.742,-14.648
39.551,10.742,14.16,16.602,92.773
53.711,10.254,20.02,33.203,122.07
45.41,10.742,9.277,41.016,73.73
39.062,10.254,2.93,38.574,51.758
46.387,10.254,6.348,40.527,-22.949
58.105,11.23,13.672,49.316,7.324
63.965,16.113,29.297,63.477,48.828
63.965,19.043,23.438,74.219,38.086
59.082,17.09,18.066,71.289,68.848
55.664,20.508,13.184,62.5,70.312
73.73,23.926,4.883,67.871,-16.602
85.449,24.414,10.254,78.125,-33.691
81.055,25.391,15.137,81.543,31.25
75.195,20.02,14.648,77.637,20.996
70.801,15.137,8.301,72.754,23.438
82.031,20.02,0,74.219,59.57
88.867,20.996,5.859,79.59,61.523
77.637,19.043,6.348,79.59,-18.066
59.082,18.555,4.883,71.289,-9.766
51.27,17.578,10.254,63.965,18.555
62.012,16.113,18.066,69.336,26.367
75.195,16.602,22.949,80.566,34.18
75.684,17.09,16.113,82.52,1.953
71.289,19.531,13.184,79.102,31.738
67.383,19.043,10.742,69.336,27.344
75.195,16.602,6.836,65.918,6.836
91.309,17.09,8.301,73.73,27.832
84.961,20.508,4.883,79.102,70.312
73.242,22.461,0,78.125,42.969
68.848,22.949,-4.395,70.312,6.348
67.383,21.973,-3.906,64.453,42.48
79.59,24.414,8.301,73.242,41.504
76.66,27.344,10.742,79.102,40.527
61.523,20.996,6.348,68.359,67.383
56.641,14.16,5.859,62.5,73.242
60.547,14.648,7.812,61.523,35.645
70.801,13.184,14.16,62.5,35.645
68.359,8.789,10.742,69.336,44.434
57.129,13.184,6.348,65.918,58.105
49.805,15.137,4.395,59.082,49.805
47.852,15.137,-2.441,60.059,2.93
55.664,14.16,4.395,63.965,-17.578
62.5,12.695,11.23,64.941,-0.977
58.105,15.137,1.465,64.941,37.598
53.223,14.648,11.23,62.5,52.734
54.199,11.23,18.066,62.012,17.09
62.012,12.695,16.602,61.035,8.301
65.43,16.113,19.043,58.105,26.855
57.617,15.137,12.207,57.617,41.992
45.898,14.648,7.324,52.734,60.547
41.992,12.695,5.371,43.457,24.414
55.664,17.578,10.254,42.969,4.395
57.617,20.508,20.996,49.805,54.199
48.828,19.531,19.531,46.875,118.652
41.016,20.508,22.461,38.086,71.289
36.621,20.02,30.762,33.691,-32.715
50.293,19.531,28.809,34.18,-3.418
58.594,21.484,35.645,34.668,17.09
46.387,22.461,37.598,32.715,5.859
37.598,21.484,30.273,29.785,-11.719
35.645,23.438,21.484,28.32,-25.879
42.969,27.832,18.066,32.715,-44.922
51.27,28.32,25.879,47.363,-19.043
45.41,27.832,22.461,52.246,32.227
41.016,26.855,8.789,44.922,-7.324
36.621,24.414,1.953,41.504,-53.223
44.434,22.949,9.766,41.992,18.555
60.547,24.902,16.602,43.945,27.344
51.27,26.367,7.812,47.363,-3.906
40.039,24.414,4.395,52.246,-22.461
35.156,19.531,4.883,42.969,46.387
40.039,15.137,3.906,42.969,69.336
53.711,15.137,16.113,46.875,15.137
45.898,18.066,14.648,41.992,-1.465
33.691,23.926,11.23,41.016,34.18
26.367,22.461,8.301,37.109,1.953
28.809,24.902,9.766,31.738,-40.527
40.527,28.32,21.973,30.762,21.484
40.039,24.414,24.902,35.156,26.367
27.344,25.879,17.578,32.227,28.809
20.02,31.25,19.043,26.367,14.648
28.32,30.273,18.066,29.297,41.504
37.598,24.414,17.09,25.879,78.125
38.574,22.949,21.973,27.344,7.324
32.227,25.391,17.578,35.645,13.672
24.414,25.879,18.555,31.25,69.824
26.855,25.391,15.625,31.738,15.625
44.922,29.785,15.625,38.086,-22.461
53.711,34.18,26.855,47.852,27.344
40.039,30.762,30.762,47.363,41.992
31.25,30.273,28.32,37.109,35.645
31.738,28.32,18.066,31.25,35.156
35.645,24.414,19.531,27.832,11.719
41.504,25.391,32.227,33.203,43.457
35.645,23.438,20.508,35.156,12.207
29.297,23.438,10.742,33.203,-7.324
25.879,25.391,17.578,29.785,43.945
31.738,22.949,18.066,27.344,10.742
41.504,15.137,21.973,31.25,56.641
32.227,12.695,11.23,29.297,82.031
22.461,16.113,6.348,21.484,43.457
18.555,16.113,13.184,19.531,24.902
29.297,17.09,14.16,22.949,1.953
40.039,17.578,21.484,29.785,20.508
31.25,13.672,13.672,31.25,30.273
17.578,11.719,5.859,27.832,34.668
13.184,14.16,10.254,23.926,58.594
22.949,17.09,9.277,26.367,51.758
35.645,18.555,14.16,31.25,-8.789
32.227,17.09,12.695,27.832,-23.438
24.414,14.648,6.348,28.809,0
19.531,13.184,7.324,28.809,-9.766
21.973,16.602,14.16,30.273,15.625
32.715,20.996,21.973,29.297,-0.488
32.715,21.484,16.602,29.785,-29.297
20.508,20.996,11.719,26.367,-16.113
9.766,20.996,13.672,15.625,16.113
15.625,21.973,9.277,16.602,-2.441
30.273,22.461,18.066,22.461,-24.414
27.832,20.996,18.555,23.926,-12.207
22.949,22.949,12.695,24.414,58.105
20.996,25.391,13.184,23.926,67.871
17.578,24.902,10.254,21.973,33.691
28.809,20.996,14.16,20.508,65.918
33.691,20.02,15.625,23.438,99.121
24.902,24.902,8.789,20.996,90.332
16.113,25.879,13.672,20.508,76.172
14.16,19.531,16.113,24.902,39.062
22.949,14.16,18.066,26.367,7.324
28.32,14.648,28.809,27.344,75.195
18.555,13.184,23.438,25.879,87.891
10.742,10.254,19.043,24.414,-13.184
14.648,10.742,19.531,21.484,-61.523
27.832,9.277,26.855,19.531,-12.207
37.598,9.277,35.156,24.902,15.137
28.809,11.23,22.949,27.344,31.25
15.137,11.719,16.602,24.902,63.477
9.766,18.066,20.508,20.996,38.574
19.043,23.438,25.391,19.043,53.223
29.785,24.414,31.738,24.902,70.801
21.484,25.879,25.391,19.043,14.648
15.137,23.438,22.461,7.812,51.758
19.531,20.996,20.02,10.254,38.574
31.25,20.996,16.602,14.16,13.184
41.504,23.438,17.578,14.648,10.742
30.273,24.414,17.578,17.09,17.09
16.602,20.508,18.555,17.09,12.695
14.16,19.531,18.066,13.184,16.113
25.879,24.414,20.996,15.625,64.453
41.016,28.32,26.855,20.02,77.148
32.227,31.25,19.531,18.555,8.789
21.484,29.297,11.719,17.09,-20.02
14.648,28.809,14.648,13.672,6.348
17.578,35.645,16.602,15.137,66.406
33.691,36.621,19.043,17.578,10.742
33.691,30.273,14.648,18.066,-53.223
19.043,29.297,13.672,14.648,-8.301
10.742,32.227,24.902,8.301,-63.477
16.602,35.645,27.344,11.23,-84.961
34.18,37.109,30.273,20.996,7.812
38.086,37.109,31.738,25.879,64.941
26.367,36.133,26.855,20.508,55.664
19.531,32.715,26.367,18.066,45.41
16.113,28.809,22.949,19.043,39.062
27.832,26.367,24.902,17.09,-5.371
35.645,26.367,23.926,22.461,-18.555
21.973,26.367,19.531,24.902,-4.395
7.812,27.832,20.508,14.16,4.395
9.766,30.273,16.113,9.277,-6.836
26.855,34.18,18.066,14.16,10.742
33.691,35.645,27.344,15.625,36.133
21.484,33.691,20.02,17.578,26.855
16.113,32.715,21.973,20.996,36.133
14.648,31.25,25.879,14.648,63.477
25.391,29.785,21.973,13.672,21.973
36.621,29.785,27.832,24.414,-41.992
26.367,30.273,25.879,33.691,21.973
17.09,27.832,20.996,32.227,9.277
14.648,26.855,19.043,28.809,-54.199
27.344,26.855,20.508,28.32,0.488
41.992,26.367,26.855,27.344,10.254
30.273,25.879,29.297,29.785,-13.184
14.648,24.414,28.32,24.902,52.246
14.648,22.461,18.555,16.113,75.684
21.484,22.461,18.066,18.066,77.637
33.691,22.461,30.762,25.391,63.965
31.738,20.508,22.949,29.297,35.645
19.531,23.438,13.672,23.438,9.277
11.23,23.926,18.066,16.113,-45.41
15.137,20.508,19.043,18.066,-55.176
29.785,20.02,27.344,27.832,-10.742
19.043,18.066,23.926,30.273,-9.766
8.789,16.602,20.508,21.484,-62.988
8.301,16.602,24.414,23.926,28.32
3.906,12.695,19.531,20.02,83.496
15.625,11.23,17.578,14.648,15.137
16.602,13.672,18.555,28.32,26.367
4.883,12.695,9.766,26.855,60.547
2.93,10.254,6.836,19.531,36.133
3.418,7.812,21.484,19.043,53.223
11.719,10.254,28.809,17.09,80.566
10.254,12.207,20.508,17.09,70.312
-1.465,16.113,10.254,7.812,68.848
-0.488,18.555,6.836,3.906,46.875
0,18.555,5.859,6.836,9.766
5.371,18.066,13.184,9.277,32.227
13.184,17.09,16.602,3.906,53.223
7.324,19.531,10.254,10.742,47.363
0.977,20.996,10.254,11.23,48.34
-0.977,20.02,15.625,-7.812,42.48
14.16,21.484,21.973,6.348,27.832
25.391,19.531,23.926,18.555,28.32
25.879,19.531,20.508,3.418,72.266
17.09,22.949,23.926,23.438,70.312
1.953,22.461,22.461,24.902,103.516
22.949,26.367,27.832,0.488,95.703
37.598,32.227,39.062,-0.977,43.945
14.16,27.832,36.621,1.465,74.707
4.395,20.02,31.25,0.488,62.5
0.977,17.09,22.461,-5.859,-10.254
15.137,22.949,27.344,2.93,24.414
36.133,29.785,32.227,18.555,23.926
26.367,31.738,26.855,25.879,15.137
15.137,34.18,26.367,24.414,32.715
16.602,34.668,31.738,21.484,-2.93
27.832,29.297,34.668,20.996,50.781
38.574,24.902,35.645,20.02,122.559
48.34,24.414,24.902,22.461,95.215
40.039,20.996,19.531,27.344,12.695
15.137,18.066,22.949,24.902,22.461
21.484,18.066,20.508,19.043,30.273
47.852,18.555,26.855,20.996,33.691
41.504,23.438,28.809,29.297,47.852
32.227,24.414,22.949,32.227,24.902
33.691,23.438,26.367,22.461,29.297
31.25,22.461,26.855,20.996,-28.809
49.316,24.414,24.902,28.809,-34.18
46.875,26.855,23.438,31.25,68.359
28.32,26.855,19.531,33.203,56.641
37.598,23.926,13.672,26.855,-0.488
37.598,25.391,8.789,15.625,13.184
40.527,28.809,12.207,15.625,66.895
49.316,31.738,16.113,37.109,15.137
36.133,30.762,13.672,30.762,-8.789
29.785,28.32,13.184,20.508,41.504
33.203,26.855,15.137,13.672,12.207
39.551,27.344,23.926,6.836,-1.953
36.621,28.32,32.715,20.508,-0.977
22.461,27.344,25.391,22.949,-22.949
17.09,29.785,28.809,21.484,31.25
18.555,30.762,25.879,20.996,42.48
34.668,32.227,16.602,17.09,-27.344
36.621,33.691,29.297,26.855,-34.668
26.855,28.809,31.25,37.598,-17.09
16.113,27.344,26.855,25.391,25.391
7.324,26.855,22.949,16.602,16.602
25.879,25.879,24.414,23.926,-15.625
41.016,28.32,35.156,31.25,29.297
29.785,25.879,27.344,34.18,-5.859
10.742,20.996,23.438,29.297,-27.344
12.695,18.066,26.855,20.02,16.602
26.367,18.555,22.461,17.09,18.555
27.832,19.043,28.32,25.391,73.73
16.602,19.043,24.902,27.344,41.016
13.672,21.484,22.461,20.508,6.348
12.695,19.043,26.367,13.672,35.156
20.02,20.996,25.391,23.926,-0.977
37.109,20.508,31.738,36.133,-14.648
28.809,17.09,40.527,34.18,34.668
16.602,19.043,41.016,33.203,60.059
16.113,20.996,31.25,28.809,41.504
12.695,21.484,21.484,16.602,16.113
29.297,19.531,27.344,16.602,20.02
33.203,17.09,29.297,25.391,83.008
14.648,19.043,32.227,23.926,48.828
9.766,20.02,40.527,14.648,-20.996
22.461,16.602,37.598,17.578,-13.672
34.18,14.648,41.992,23.438,-0.488
21.973,11.719,44.434,17.09,-12.207
23.926,13.184,44.434,21.973,12.207
20.508,16.113,43.945,15.137,40.527
9.766,17.578,37.598,3.418,15.137
31.738,20.996,41.016,4.883,31.25
34.668,23.926,34.668,3.418,32.715
23.438,27.344,21.484,20.02,39.551
18.066,24.902,22.461,17.09,49.805
23.438,22.461,20.508,8.301,41.504
38.574,19.043,26.367,31.25,52.246
42.48,14.648,30.762,18.555,24.902
20.508,16.113,25.879,8.789,77.148
3.418,17.09,24.902,15.625,92.285
12.207,16.113,23.926,11.719,48.828
30.762,14.16,30.762,13.184,89.844
26.855,8.789,30.762,22.949,97.656
14.648,8.301,17.09,23.438,62.5
12.695,14.648,20.02,17.09,26.367
10.254,16.602,25.879,5.371,-7.812
17.09,16.113,31.25,12.695,18.066
34.18,18.066,37.109,27.832,55.664
22.461,17.578,31.25,21.484,20.02
11.23,15.137,28.32,18.066,17.09
12.695,11.719,25.879,19.531,31.738
25.879,11.23,26.367,28.32,-56.152
33.203,9.277,34.18,32.227,-33.203
23.926,7.812,27.832,22.461,51.758
19.043,8.301,25.391,23.438,18.066
7.324,7.324,29.785,26.367,20.508
24.414,10.254,26.855,30.273,18.066
45.41,13.184,38.574,41.504,31.25
33.691,15.625,44.922,43.945,15.625
28.32,20.02,40.527,40.039,10.742
25.879,21.484,35.156,31.738,47.363
22.461,23.926,33.691,31.25,14.648
31.25,21.484,42.48,27.832,-24.902
33.203,18.066,43.945,37.109,-20.508
27.344,20.996,31.25,44.922,6.836
25.879,20.508,31.25,29.297,41.016
17.09,14.648,35.645,15.625,-1.465
21.484,14.16,40.527,28.32,9.277
26.855,15.625,29.297,27.344,25.391
15.625,16.113,22.949,3.906,-20.02
11.719,20.02,36.621,7.324,-16.602
19.531,21.973,33.691,12.207,-10.254
33.691,16.602,39.551,16.113,42.48
31.25,12.695,46.387,29.785,89.844
14.16,15.625,46.875,23.926,70.801
9.277,19.531,44.434,15.625,21.484
17.09,16.602,38.086,8.301,19.531
30.762,15.625,41.992,11.23,23.438
35.156,17.578,45.41,16.602,2.93
19.531,19.531,47.363,15.137,33.691
15.137,21.973,44.922,21.484,21.973
18.066,23.438,36.621,20.996,9.277
29.297,24.414,38.086,18.066,46.387
37.598,20.508,41.504,30.273,10.742
22.949,19.043,37.109,29.785,-22.461
22.461,19.043,33.691,14.648,-41.992
20.996,13.672,29.297,16.113,-29.785
18.066,10.254,24.414,21.973,22.949
27.344,11.23,24.902,23.438,56.152
20.996,14.16,27.344,27.344,98.633
10.254,17.09,24.414,20.508,94.238
0,18.066,20.508,14.648,32.227
11.719,20.508,28.32,8.301,63.965
25.879,20.996,31.25,8.789,65.918
14.648,17.09,26.367,9.277,20.02
6.348,16.602,26.367,11.719,40.039
6.348,19.531,23.926,9.277,34.18
15.137,21.973,21.973,9.766,56.641
28.32,22.949,26.367,14.648,57.129
24.414,22.949,21.484,11.23,52.246
15.625,18.066,8.789,13.672,50.781
3.906,13.672,5.371,4.883,15.625
-1.465,16.113,4.883,-2.93,-18.555
20.02,16.602,3.906,7.812,8.789
23.438,15.137,0,17.09,48.828
5.859,14.16,-1.953,14.648,70.801
0.977,13.672,-2.441,5.371,39.062
8.301,16.602,-2.441,-3.418,36.621
17.578,17.578,5.859,2.93,74.219
19.043,17.09,0.488,6.836,37.598
14.16,20.508,1.465,11.719,55.664
10.742,20.996,-2.441,6.348,45.898
14.16,19.043,-11.23,-1.465,18.555
27.832,23.926,2.93,5.859,-6.348
27.344,21.973,10.254,10.254,-28.809
9.766,19.043,5.859,2.441,1.953
-1.465,21.973,8.789,-1.465,20.02
-1.953,20.996,7.812,-3.418,-19.043
12.207,15.137,18.066,0.977,42.969
20.996,11.719,23.926,6.348,79.102
8.789,14.16,25.391,6.348,10.742
7.812,14.648,25.879,15.625,-45.41
11.23,16.602,21.973,13.184,-47.852
17.578,22.461,25.879,11.719,41.504
27.832,20.996,23.926,19.043,58.594
21.484,16.602,16.602,20.02,39.551
17.578,20.02,13.672,13.184,63.965
17.578,21.484,11.719,8.789,8.789
20.02,20.996,9.766,13.184,13.672
21.973,22.461,14.648,18.066,67.383
13.672,25.879,14.16,22.461,37.598
12.207,30.762,19.043,19.531,33.691
14.16,28.809,16.113,20.02,29.785
21.973,27.832,14.648,19.531,35.156
35.156,32.715,22.461,21.973,52.246
36.133,37.109,20.02,28.809,57.129
31.25,38.574,20.996,26.855,53.711
24.414,38.086,17.09,23.438,-16.602
33.203,38.086,16.113,22.461,-14.648
41.992,35.645,22.461,25.879,42.969
32.227,30.762,21.484,30.762,66.406
28.809,31.25,17.578,31.738,36.621
32.715,32.715,14.648,29.297,-21.973
38.086,28.809,14.648,32.227,-2.441
52.246,28.32,24.902,34.18,32.227
55.664,29.297,18.555,34.18,-8.789
36.621,30.273,12.695,35.645,-29.785
20.508,33.691,18.066,31.25,48.828
39.551,33.691,4.883,32.715,36.621
53.711,29.785,14.16,29.785,66.895
44.434,25.879,22.949,25.879,55.664
30.762,21.973,19.043,26.855,39.062
26.367,20.996,24.902,20.996,56.641
33.691,23.438,30.273,23.438,8.301
46.875,22.461,35.645,35.156,43.457
50.781,22.949,29.785,36.133,26.855
47.363,24.414,30.762,37.598,48.34
38.086,24.902,30.273,30.762,32.227
29.297,24.902,26.367,22.949,31.738
41.016,23.926,31.738,29.297,73.242
53.711,21.973,30.273,37.109,6.348
48.828,17.578,22.949,36.133,-5.371
39.551,17.09,17.578,29.785,-13.672
48.34,19.531,18.066,27.344,17.09
52.246,20.02,21.973,28.32,42.48
46.875,14.16,16.602,31.738,-20.508
41.504,12.207,12.695,32.227,-20.02
35.156,12.695,20.996,34.668,58.105
34.18,9.766,21.484,19.043,42.48
39.551,9.766,19.043,17.578,41.992
41.992,8.301,23.438,29.297,43.457
38.574,2.441,28.809,22.461,9.277
37.109,1.953,33.691,31.25,8.301
28.809,0.488,27.344,24.414,14.648
22.949,-3.906,26.855,12.695,16.602
46.875,0.488,42.969,30.762,49.805
38.574,6.348,28.32,25.391,4.395
12.695,5.371,24.902,15.625,12.207
16.113,2.93,36.621,18.066,83.008
25.391,3.906,31.25,24.414,81.543
36.133,3.418,36.133,21.973,28.809
39.551,3.418,40.527,17.578,12.695
36.621,7.324,35.645,21.973,52.246
26.367,9.766,31.25,17.578,77.148
22.461,15.137,30.762,18.066,107.422
29.785,18.555,35.645,13.184,116.699
24.902,16.602,39.551,10.742,48.34
20.508,14.16,40.527,13.672,-28.809
9.766,10.742,35.645,10.742,-56.152
13.184,12.207,27.832,1.953,-6.348
32.715,18.555,29.785,11.719,22.949
31.25,19.531,23.438,25.391,43.945
9.766,19.043,24.902,26.855,24.902
3.418,20.02,35.156,19.043,4.395
15.137,21.484,34.668,6.348,12.695
22.949,22.461,41.016,22.949,24.902
28.809,21.973,37.109,27.344,17.578
18.066,24.414,28.32,16.602,29.785
0.977,21.484,34.668,30.762,-16.602
3.906,18.066,38.574,21.484,-5.371
20.996,23.926,41.016,13.672,37.109
25.391,24.902,42.48,34.668,-8.301
18.066,22.949,36.621,36.133,16.113
5.371,22.949,28.809,20.02,48.34
1.465,26.367,23.438,12.207,60.059
20.508,29.785,23.926,12.695,38.574
18.555,21.484,31.738,20.02,29.297
9.277,19.043,33.203,15.137,24.414
-0.488,18.066,30.762,13.672,-57.617
-9.766,18.066,28.809,15.137,-49.316
-4.883,20.02,25.879,3.906,30.762
15.625,21.484,24.414,-0.488,5.859
13.184,25.391,18.555,10.254,1.953
0.977,26.367,21.484,7.324,40.039
-2.93,24.414,25.391,2.93,42.48
3.418,23.926,19.043,5.371,0
29.785,27.344,20.508,9.277,15.625
32.227,28.32,20.996,17.09,44.434
11.719,24.902,18.555,20.508,21.484
3.906,23.926,12.695,5.859,-21.973
15.137,26.855,13.184,-0.488,-13.184
35.156,27.344,23.438,16.113,-13.184
34.18,28.809,19.531,26.855,-49.316
12.695,27.344,18.066,11.23,3.906
-0.977,25.879,19.531,12.695,40.039
10.742,23.926,12.207,24.414,15.137
26.855,20.508,14.16,14.16,40.527
26.367,22.461,12.695,13.672,44.434
23.438,23.438,8.301,23.926,43.945
11.719,20.996,2.93,14.648,100.586
13.672,21.973,0,11.23,29.297
29.785,23.926,3.906,14.16,41.992
23.438,20.02,5.859,18.066,48.34
7.324,16.113,11.719,30.273,-10.742
5.859,15.137,15.625,30.273,7.812
15.625,20.996,13.672,16.602,24.414
25.879,20.508,22.949,21.484,39.062
26.367,14.16,24.414,24.414,36.133
16.602,13.672,19.531,17.09,33.203
5.859,16.113,18.066,19.043,17.578
1.953,20.996,20.02,20.02,65.43
21.484,23.438,23.438,24.902,71.289
37.598,20.02,12.207,24.414,-23.438
23.926,19.043,9.277,24.902,-35.645
10.742,23.926,19.043,22.461,-13.184
8.301,23.926,17.578,18.555,20.02
21.973,20.996,20.02,22.461,29.297
33.691,20.996,22.949,26.855,51.758
19.531,22.461,13.672,20.508,62.988
11.719,24.414,13.672,11.719,-3.906
8.301,23.926,0.977,5.859,-26.367
12.207,26.367,-3.906,9.277,20.996
28.32,30.273,7.324,8.789,29.297
28.32,30.762,2.441,5.859,31.738
10.742,30.762,-0.488,5.371,18.066
5.371,24.902,2.93,2.441,34.18
18.555,21.484,1.953,6.348,65.918
26.367,24.902,1.465,3.418,41.992
24.902,24.414,5.371,-3.906,41.992
20.508,25.391,4.883,1.465,70.801
13.672,22.461,2.93,9.277,65.918
9.277,18.555,6.836,3.906,33.203
26.367,22.461,15.137,-4.395,-11.719
28.32,21.973,15.137,-0.977,-9.277
9.277,19.043,18.066,1.953,53.711
10.742,20.996,15.137,0.977,60.547
20.02,21.973,9.277,3.418,-3.418
31.25,23.926,14.648,8.301,31.25
24.902,24.414,10.254,17.09,17.578
5.371,23.438,8.301,22.461,21.973
-0.488,28.32,2.93,18.555,77.148
8.789,28.809,-3.906,7.812,46.875
26.855,24.902,10.254,9.766,75.684
29.297,24.414,12.695,22.461,98.145
18.066,26.367,6.348,21.973,47.852
17.09,29.297,7.324,16.602,36.621
14.16,31.738,8.301,11.719,41.016
26.367,30.273,15.137,14.16,12.207
33.691,32.715,15.625,20.508,3.906
17.09,34.18,14.648,18.066,62.012
16.113,27.832,12.207,18.555,84.961
15.137,27.344,9.766,18.555,43.945
17.578,34.668,16.113,19.531,39.062
27.832,38.574,20.02,26.367,18.555
23.438,41.504,21.484,20.996,14.16
21.973,43.945,26.855,19.043,20.02
9.766,40.039,21.973,21.973,-13.672
16.113,35.645,16.602,15.137,-20.996
38.574,35.156,18.555,23.926,37.109
29.785,34.18,11.719,25.391,78.613
19.043,27.832,6.836,25.391,47.852
15.625,24.414,7.812,20.996,-15.137
20.508,21.973,10.742,21.973,36.621
34.668,19.043,11.23,26.367,86.914
28.32,19.531,9.766,22.949,43.457
20.02,24.902,13.672,22.949,58.594
20.996,27.344,5.859,21.973,62.988
30.273,29.785,0.488,22.461,41.504
43.945,32.227,4.395,25.879,-3.906
43.457,32.715,1.465,28.809,25.391
35.156,33.691,12.695,29.785,24.414
27.344,33.203,20.02,21.973,-7.324
26.367,29.297,19.043,23.438,-9.277
49.805,31.738,17.578,25.391,26.367
53.711,35.156,11.719,22.949,43.945
40.039,33.203,14.16,30.273,8.789
41.992,36.621,9.277,32.227,12.207
40.527,38.086,2.93,24.902,48.34
53.711,35.156,3.418,21.484,7.812
66.406,34.18,-9.277,21.973,-54.199
46.387,34.18,-11.23,22.949,-13.672
20.508,32.715,-2.441,22.949,47.852
4.395,26.855,-2.441,16.113,39.062
9.766,26.367,6.348,15.625,50.781
18.555,31.738,8.301,14.648,46.387
9.277,30.762,6.348,14.648,-1.953
6.836,28.32,0.977,12.695,35.156
12.695,29.785,8.301,12.695,19.531
28.809,28.32,22.949,23.438,-17.578
43.457,30.273,17.09,25.391,-35.156
29.297,31.738,13.672,19.531,-21.484
18.555,25.391,18.066,19.043,3.418
23.926,24.414,14.648,14.16,27.832
33.203,24.902,15.625,17.578,75.684
38.086,24.902,11.23,28.809,49.316
32.715,28.809,9.766,27.832,36.133
26.855,35.156,10.742,20.996,-9.277
19.043,35.645,9.766,19.531,-37.109
28.809,34.18,17.578,25.879,-10.254
37.598,36.133,15.137,23.438,12.207
30.762,33.203,9.277,18.066,45.41
28.32,32.227,13.672,16.602,3.906
19.043,36.133,16.602,11.23,-11.719
24.902,40.039,16.602,8.789,18.066
41.016,42.48,19.043,7.324,-18.066
34.18,41.504,18.555,9.766,-8.301
26.367,39.062,16.602,8.301,1.953
18.066,37.109,17.09,-2.93,30.762
17.09,37.598,18.066,2.441,49.316
23.926,35.156,20.02,11.719,28.32
14.648,28.809,20.02,9.277,83.984
5.859,29.297,12.207,1.465,91.797
8.301,33.691,10.742,2.93,80.566
20.02,36.621,18.555,2.441,4.883
33.203,36.621,29.785,3.906,-4.395
17.578,30.762,31.738,13.672,39.551
3.906,33.203,28.809,7.324,-17.09
6.836,33.203,36.133,10.254,-22.949
11.23,32.227,38.574,1.953,59.57
21.484,33.691,41.504,1.953,68.359
27.344,30.273,36.621,17.578,1.465
14.648,27.832,33.203,17.09,10.742
-8.789,25.391,29.785,9.277,67.871
-8.301,24.414,22.461,-3.418,62.5
14.648,26.367,30.273,-0.488,13.184
20.02,20.02,31.738,5.859,50.293
7.812,10.742,33.203,16.602,51.27
0.977,15.137,39.062,15.137,46.387
-18.555,25.879,24.414,-4.395,9.766
-16.113,27.832,22.949,-14.648,2.93
-3.906,26.855,31.25,-13.184,41.504
-16.602,26.855,28.809,-6.836,26.367
-25.391,33.203,19.043,-20.996,3.906
-34.668,36.133,16.602,-41.016,47.852
-34.18,27.344,21.973,-37.598,81.543
-27.344,23.438,24.414,-28.32,3.418
-31.25,26.367,26.855,-29.297,5.371
-26.367,29.785,20.508,-36.133,-4.395
-30.273,27.344,13.672,-40.039,-54.199
-19.043,22.461,20.508,-22.461,-44.922
-7.812,27.344,22.949,-25.879,38.574
-12.207,31.25,14.648,-32.227,46.387
-34.18,27.344,12.207,-22.949,31.738
-50.293,23.926,16.113,-21.484,11.719
-26.367,21.484,19.531,-26.855,-34.18
-15.137,18.066,22.461,-18.066,41.992
-31.738,16.602,26.367,-7.324,81.543
-41.016,20.508,29.785,-18.066,42.48
-34.18,21.484,25.879,-40.039,19.043
-22.461,19.531,28.32,-38.086,-13.184
-11.23,21.484,36.621,-25.391,20.02
-15.137,25.879,32.227,-24.414,30.273
-28.32,24.902,35.645,-16.113,52.246
-35.156,23.926,34.668,-16.602,102.051
-26.367,26.367,29.785,-25.391,40.039
-8.301,30.273,35.645,-17.578,20.996
-0.488,31.738,39.062,-15.137,47.852
-9.766,33.203,45.41,-16.113,26.367
-14.648,32.715,43.945,-14.648,2.93
-13.672,29.785,41.016,-11.719,42.48
3.418,28.32,52.246,-1.465,54.199
17.578,28.32,42.48,3.418,-23.438
11.719,27.832,35.645,-0.488,-31.738
0,22.949,47.852,2.93,27.832
7.324,23.926,45.41,1.953,-22.949
19.043,25.391,50.781,9.277,-16.113
20.508,20.508,53.711,18.066,-19.531
16.113,17.09,49.805,9.766,-67.383
5.371,15.137,53.223,-2.441,0.977
3.906,17.09,51.27,-8.301,50.781
21.973,20.508,50.781,6.836,51.27
30.762,22.461,61.035,18.555,39.551
20.02,25.391,64.453,17.09,57.617
19.043,27.832,62.5,17.09,27.832
16.602,27.344,61.035,18.066,-11.23
27.832,28.32,61.035,26.367,-3.418
43.945,27.832,57.617,31.738,40.527
36.133,28.32,61.523,23.438,55.664
29.297,27.344,57.617,24.902,-14.16
33.691,24.414,37.598,28.32,36.133
41.992,24.902,38.086,23.926,53.711
49.805,25.391,44.922,37.109,-5.859
47.363,31.25,46.875,45.898,-5.371
37.598,35.156,50.293,42.48,24.414
29.785,33.691,52.246,41.504,71.777
41.504,34.18,51.758,39.551,104.98
53.711,33.203,44.434,38.086,88.867
42.969,33.203,43.457,40.039,45.898
39.062,33.203,49.316,41.504,45.898
38.574,28.32,43.945,38.574,58.105
35.156,24.902,39.551,29.297,-4.395
71.777,25.391,47.363,27.344,-20.996
71.777,24.414,44.434,35.156,41.016
31.738,24.902,42.48,33.203,63.477
33.203,19.531,40.039,31.25,42.969
38.086,19.043,34.668,31.25,48.828
47.363,22.461,40.039,31.738,77.148
45.898,17.09,43.457,35.645,94.238
34.668,13.672,42.48,33.203,80.566
18.555,13.672,38.574,23.438,79.102
36.133,14.16,39.062,20.996,44.434
55.176,20.508,47.363,23.926,-2.93
35.645,20.508,47.852,29.297,20.996
26.855,15.625,47.363,36.621,53.223
18.066,12.207,41.992,39.062,23.438
25.879,12.207,35.156,35.156,37.598
65.918,15.137,42.48,37.109,38.574
57.129,12.695,45.898,36.133,22.461
29.297,6.348,47.363,32.715,6.348
30.762,-14.16,52.734,32.715,12.207
18.555,-28.809,47.363,23.438,85.449
37.109,-25.391,50.293,20.996,35.645
54.199,-24.902,53.223,31.25,-34.18
49.316,-22.949,48.828,27.832,-15.625
54.688,-20.508,42.969,26.367,42.969
30.273,-26.855,39.062,19.531,14.16
32.715,-24.414,40.039,2.93,22.461
52.246,-22.949,41.504,10.254,49.316
36.133,-23.438,43.945,23.438,37.598
16.113,-20.02,46.875,11.23,19.531
14.16,-22.949,43.457,-0.488,21.484
45.898,-21.973,53.223,8.789,83.496
45.898,-19.531,60.547,23.438,49.316
20.508,-17.09,60.059,21.973,-6.348
31.738,-16.113,59.57,25.391,-32.715
38.086,-16.113,56.152,18.555,-9.766
36.133,-14.648,57.129,16.113,-40.527
33.691,-11.719,63.477,22.461,-42.48
45.41,-7.324,67.871,23.926,-4.883
36.133,-7.324,67.383,27.344,3.418
30.762,-4.883,61.523,18.066,71.777
40.039,-5.371,67.383,17.578,91.309
47.852,-5.859,78.613,24.414,93.262
42.969,-5.371,73.73,20.996,116.699
40.527,-7.324,76.66,20.02,61.035
32.715,-10.254,83.008,27.344,33.691
42.48,-13.184,74.219,18.066,0.488
49.805,-13.672,73.73,14.648,9.277
41.016,-13.184,75.684,37.598,44.922
46.387,-8.789,75.195,59.57,-1.953
25.391,-2.441,79.102,39.062,46.875
13.184,-0.488,74.707,1.953,65.43
43.457,-0.488,77.637,2.441,24.902
24.902,0.977,92.773,2.441,-13.184
-3.906,5.859,94.238,-2.441,2.93
7.812,7.812,87.402,-2.441,61.523
2.93,3.906,83.496,0.488,131.836
19.531,4.395,77.637,7.812,91.797
34.668,7.324,64.941,12.207,14.648
17.578,5.371,66.406,18.066,74.219
18.066,8.301,67.871,15.137,52.734
20.508,13.184,62.5,12.207,14.16
15.137,14.16,71.289,17.09,53.711
36.133,15.137,75.684,16.602,41.992
33.203,15.137,73.73,13.672,0.977
22.461,14.16,70.312,20.996,15.137
15.625,13.184,72.266,20.02,19.531
39.062,16.113,77.637,16.602,0
49.316,11.719,67.383,20.02,40.527
18.066,7.324,59.082,17.09,27.832
18.555,15.625,64.941,17.09,-14.16
20.508,15.137,58.594,8.789,36.133
21.973,11.23,50.781,7.324,45.898
47.363,9.277,51.27,11.719,20.996
38.574,5.859,56.641,6.836,49.805
12.695,4.883,53.223,3.418,55.664
20.02,5.859,41.016,0.977,41.992
31.738,8.789,47.363,10.742,53.711
38.086,10.254,53.223,20.508,18.555
45.898,14.648,51.758,12.695,32.715
28.809,14.648,54.199,13.672,46.387
6.836,12.695,48.34,13.184,55.664
16.602,14.648,46.387,9.277,61.035
26.367,19.043,48.34,12.207,-6.348
31.738,23.926,51.758,18.555,-18.066
35.645,22.461,55.176,20.02,21.973
20.508,18.066,49.805,11.23,86.426
16.602,16.602,42.48,1.465,43.457
33.203,18.066,46.875,9.277,20.02
30.273,15.625,50.781,11.23,24.902
8.789,8.301,46.875,4.395,-3.418
2.441,6.348,41.992,6.348,18.555
6.348,9.766,41.992,5.371,43.457
4.883,7.812,46.387,7.812,37.109
19.043,5.859,47.363,14.648,39.062
22.949,8.301,46.875,16.602,-2.441
7.812,8.301,51.27,16.113,-7.324
-2.93,12.695,51.27,15.625,18.066
22.461,17.578,53.223,20.02,31.738
38.086,14.16,52.246,24.414,33.203
24.902,16.113,53.223,29.297,79.59
9.766,18.066,55.664,24.902,86.914
24.414,19.043,52.246,18.066,36.621
29.297,15.625,58.594,23.438,58.594
24.902,6.836,50.781,21.484,54.688
18.066,4.395,47.852,18.555,19.043
0.488,4.395,50.293,22.461,5.859
7.324,6.348,41.504,21.973,26.367
27.344,10.742,44.434,27.344,12.695
39.062,14.648,48.828,28.809,-11.23
42.969,20.508,46.875,26.367,36.133
42.48,19.531,41.992,24.902,29.297
18.555,13.184,36.133,19.043,22.461
30.273,16.113,38.574,32.227,45.41
41.992,20.02,40.039,34.18,-3.418
17.578,21.973,35.645,8.789,-5.371
43.945,25.879,34.668,2.441,33.691
40.527,19.043,37.109,13.672,11.719
6.836,15.137,36.133,3.418,10.254
30.762,17.578,27.832,25.879,37.109
26.367,16.602,24.902,23.438,-3.906
20.02,18.066,34.668,-6.348,5.371
23.926,15.625,34.18,-13.672,50.781
16.113,17.578,26.367,-6.348,-7.324
9.766,17.09,27.344,29.785,-39.551
31.738,13.184,37.109,13.672,2.441
28.32,13.184,37.109,-6.348,22.461
13.184,12.695,33.203,23.438,4.883
3.418,9.766,41.016,33.691,33.203
20.02,10.742,40.527,7.812,65.43
50.781,11.23,30.762,-14.16,46.387
36.133,10.742,29.297,15.137,30.762
12.695,6.836,29.785,38.086,39.551
16.602,2.93,26.367,14.648,18.066
31.738,5.859,25.879,-15.137,34.18
32.227,8.301,29.297,-7.324,48.34
19.531,4.395,23.438,17.09,11.23
10.742,-1.953,17.578,21.484,9.277
25.879,-2.93,15.625,0.977,30.273
20.996,-0.488,17.09,-3.418,48.828
20.508,2.441,21.484,28.809,12.695
21.973,6.836,18.555,37.598,3.418
31.738,14.648,12.207,20.508,-19.531
37.598,17.578,9.766,13.184,8.789
36.133,15.137,15.625,11.719,62.988
47.363,16.602,20.02,13.184,65.43
35.645,18.066,18.555,31.738,23.438
9.766,11.719,11.719,37.598,-1.465
21.973,16.113,3.906,12.207,28.809
44.434,22.461,8.789,0.977,59.082
36.133,17.578,14.16,11.23,25.391
8.301,18.555,12.207,11.23,65.43
15.625,20.996,14.16,9.766,98.145
27.344,17.09,12.695,16.113,38.574
12.207,18.555,11.719,11.719,27.344
20.508,22.949,16.602,6.348,33.691
37.109,24.902,13.672,8.789,67.871
22.461,20.508,11.23,38.574,39.062
-4.395,21.484,7.324,38.086,-1.953
25.879,26.855,4.395,8.789,41.016
56.152,25.879,6.836,26.367,18.066
61.523,28.32,10.742,35.645,-23.926
53.711,28.809,15.137,23.926,-18.555
37.109,30.273,9.766,19.043,19.531
25.391,31.25,9.277,23.926,0.488
55.664,28.32,12.695,33.203,5.859
66.406,32.227,11.719,22.461,49.316
41.992,33.691,14.648,13.184,53.223
27.344,31.738,8.301,31.25,52.734
50.293,34.668,2.441,18.066,62.012
68.359,34.18,3.418,19.043,82.031
30.762,29.785,8.789,53.223,62.012
42.48,36.133,5.859,33.691,-28.32
53.711,41.992,-1.465,17.578,-32.227
18.066,39.551,3.906,34.668,14.16
20.02,41.016,14.16,40.527,1.465
42.48,45.898,16.113,39.062,2.441
45.898,53.223,16.602,36.621,48.828
33.691,57.617,14.648,14.16,41.016
57.617,61.523,9.766,12.695,-27.832
57.129,53.711,12.207,43.945,-32.715
35.156,48.34,11.719,45.898,9.766
55.664,57.129,10.254,33.691,7.812
24.902,50.293,10.742,33.691,-26.367
-7.812,39.062,7.812,38.086,-21.484
24.414,36.621,15.625,28.809,-10.254
47.852,34.18,17.09,21.484,13.184
33.203,30.762,15.137,30.273,21.973
20.02,27.832,11.23,18.066,-12.695
30.762,29.297,6.836,30.762,15.625
15.625,25.391,15.625,33.691,60.059
15.137,22.461,23.438,32.227,74.707
41.992,33.203,22.461,20.996,37.598
45.898,40.039,18.066,9.766,-8.789
10.254,38.086,17.578,24.902,3.418
-3.906,38.574,25.391,61.035,28.809
7.812,38.086,31.738,75.195,20.02
24.902,42.969,33.691,18.066,55.664
38.574,39.551,35.156,14.16,86.426
15.137,28.809,32.715,24.902,35.645
5.371,26.855,33.203,32.227,23.438
17.578,24.414,33.203,39.551,50.781
54.688,28.809,23.926,22.461,30.762
14.648,24.414,21.973,31.738,-1.465
-29.297,11.719,21.973,27.344,32.715
30.762,17.09,13.672,19.043,33.691
63.477,25.879,6.348,20.508,39.551
12.207,18.555,2.93,27.832,19.043
-0.977,15.137,13.184,47.852,6.836
9.766,19.043,16.113,30.762,-9.277
23.438,20.02,16.113,15.137,2.93
35.156,17.578,20.996,17.578,61.523
23.438,15.137,21.484,23.926,5.371
37.598,17.578,30.762,35.156,9.766
40.527,19.043,34.18,39.062,48.34
13.184,19.531,31.738,17.578,37.598
-5.859,13.184,30.762,14.16,60.547
5.371,8.301,27.344,39.062,62.5
31.738,15.625,25.879,40.039,52.734
35.156,19.531,23.926,14.16,26.367
12.207,12.695,27.832,10.254,69.824
6.836,9.766,34.668,15.137,85.938
32.715,15.137,35.156,18.555,78.613
45.898,21.484,33.203,28.32,69.336
23.926,20.996,27.344,25.879,18.555
7.324,19.531,23.438,-0.977,22.461
11.23,20.508,28.32,1.953,67.383
20.02,20.508,27.832,26.367,39.551
33.203,21.973,25.391,26.855,8.301
29.785,23.438,24.414,14.16,-40.039
6.348,23.926,22.461,-8.789,-11.23
12.695,22.461,20.996,10.742,61.035
37.109,21.973,18.066,32.715,0.488
54.199,27.832,20.02,24.414,-55.664
38.086,32.227,18.555,7.324,-50.781
-13.672,25.879,19.531,7.324,-24.414
-2.441,19.043,23.438,24.902,1.465
44.922,21.484,18.066,27.344,23.926
37.598,26.367,23.926,5.859,-0.977
14.16,29.297,32.227,11.23,21.973
14.648,27.832,26.367,7.324,20.02
20.996,27.344,26.367,-12.695,-20.508
30.762,29.785,34.668,11.23,20.508
31.738,27.344,39.551,31.25,43.945
33.691,24.902,27.832,25.879,14.16
58.105,26.855,15.625,26.367,43.945
24.414,21.484,23.438,36.133,20.02
0,20.02,28.32,32.227,-9.277
31.25,25.391,25.391,26.855,-42.969
26.855,30.273,23.438,23.438,-13.672
24.902,37.598,15.625,20.508,93.262
31.25,35.645,16.602,24.414,-7.324
27.344,21.484,20.996,20.508,-33.691
11.23,15.137,22.461,25.391,43.945
0.977,13.184,29.785,25.879,65.918
2.441,9.766,25.391,18.555,-3.418
9.277,10.254,14.648,18.066,-16.602
39.551,12.207,13.184,26.367,5.859
43.457,12.207,14.648,28.32,-8.789
14.648,15.137,16.602,17.578,-24.414
19.531,24.414,9.766,20.996,4.395
37.598,23.926,13.184,36.133,60.059
36.621,14.16,25.391,22.461,67.383
19.043,13.184,29.785,16.602,26.855
8.301,17.09,30.273,26.855,5.371
15.625,17.578,27.832,20.02,21.484
1.465,10.254,38.086,14.16,50.781
-3.418,4.883,43.457,27.344,72.266
29.297,12.207,33.691,33.203,21.973
36.621,13.672,32.715,34.18,20.02
11.719,9.766,34.18,29.297,56.641
-6.348,11.23,27.344,14.16,57.129
8.301,13.184,27.832,21.484,61.523
23.438,17.578,24.902,50.293,15.625
16.113,23.926,24.414,29.785,-38.574
10.254,25.391,35.156,2.93,8.301
12.207,22.949,34.668,10.742,48.34
25.879,20.508,33.691,15.625,43.945
40.039,20.02,37.598,20.02,60.059
32.227,16.602,39.551,23.926,38.086
19.043,10.742,28.32,25.391,8.789
18.066,11.23,27.344,19.043,31.738
23.926,12.207,35.645,17.09,30.273
38.086,15.137,33.203,31.738,68.359
34.668,18.066,34.668,32.227,78.125
20.508,18.066,28.32,23.926,-78.613
0.488,13.184,28.809,25.879,-70.801
1.953,8.789,33.203,17.09,45.898
25.879,7.812,26.367,16.602,68.848
21.484,11.23,22.949,20.02,33.203
1.953,14.648,32.227,15.137,-7.324
5.371,14.16,31.25,14.16,-28.809
26.855,17.09,22.949,9.766,-26.367
38.574,16.113,33.691,20.02,21.484
27.832,17.09,42.969,28.32,15.137
16.113,20.508,32.715,23.926,-37.598
12.695,20.508,22.949,19.043,-97.168
18.555,19.043,21.484,21.484,-65.43
26.855,14.648,17.578,22.461,18.555
27.832,10.742,19.531,22.949,66.406
29.297,15.625,29.297,26.855,75.684
37.598,21.484,20.508,17.578,59.082
29.785,21.973,6.836,21.484,34.668
35.645,25.879,8.789,33.203,25.879
52.246,28.32,13.184,38.086,9.766
36.133,27.344,19.043,42.48,11.719
24.902,29.785,24.414,38.574,62.5
30.762,33.203,23.926,32.227,37.109
38.574,32.715,22.949,31.738,15.137
44.434,32.715,24.902,36.133,66.406
33.691,36.621,34.668,28.809,87.402
19.043,35.156,36.133,26.367,73.242
10.742,34.668,23.926,25.879,21.484
18.555,40.039,25.391,20.02,27.832
35.156,42.969,30.762,18.066,3.418
25.879,38.086,31.738,21.973,7.812
8.301,24.414,24.902,18.555,27.832
8.789,16.602,20.02,16.113,44.434
15.625,15.137,22.461,16.113,56.641
28.32,11.23,23.438,14.648,12.695
24.414,10.254,26.855,11.719,20.02
11.23,15.137,32.227,13.672,46.387
2.93,15.625,24.902,14.16,46.875
9.277,9.766,20.508,9.277,84.473
31.738,10.742,20.02,16.602,28.809
28.32,13.672,26.855,25.391,-27.344
19.043,12.207,31.25,23.926,22.461
15.625,10.742,29.297,20.02,54.199
17.09,11.719,26.367,21.973,41.016
28.32,13.672,27.344,20.996,4.883
32.715,15.137,32.715,20.02,35.156
25.391,21.484,34.668,29.785,60.547
26.367,24.902,27.832,35.156,31.738
27.344,24.414,28.32,31.738,34.668
24.414,19.531,41.504,23.926,37.109
23.926,17.09,47.852,20.02,67.871
23.926,21.973,46.875,23.926,75.684
13.672,26.855,40.039,20.02,45.41
2.93,33.203,41.992,8.301,32.227
18.066,35.156,49.805,15.625,44.922
25.879,31.738,43.457,25.879,105.957
13.672,30.273,41.016,18.066,56.641
9.277,33.691,52.734,13.672,42.969
8.789,33.691,45.898,10.742,44.434
21.973,30.762,38.574,16.113,39.551
25.879,34.668,41.992,23.926,17.09
13.184,37.109,45.898,21.484,-9.766
12.695,33.691,40.039,18.555,42.48
11.23,34.18,33.691,14.16,29.297
11.23,33.203,36.621,19.043,-21.484
21.973,31.25,37.109,27.344,37.109
13.672,30.273,34.18,26.855,43.457
12.207,26.367,26.367,25.391,-72.266
21.973,20.02,26.367,23.438,-23.926
18.555,12.695,30.273,21.484,58.105
28.32,12.695,27.344,27.344,14.648
28.32,16.113,29.785,26.855,20.996
11.23,16.113,26.367,24.414,-4.883
11.719,16.113,18.066,22.949,-30.273
21.973,17.09,18.555,18.066,-7.324
27.832,21.484,18.066,23.926,19.043
19.531,26.367,20.508,28.809,41.504
6.836,28.809,22.461,20.996,32.715
2.441,34.18,19.531,16.602,78.125
11.23,35.645,21.973,15.137,54.688
26.367,35.156,18.066,14.648,-6.348
26.855,33.691,23.438,12.207,25.391
19.043,26.855,39.062,11.719,76.172
11.719,23.438,34.18,12.695,71.289
16.602,24.902,24.902,9.277,-10.254
30.273,25.879,25.391,13.672,-30.762
29.297,25.391,31.738,20.508,48.34
19.043,26.367,32.715,17.578,97.656
9.277,24.902,29.297,9.766,42.48
9.277,19.043,27.344,5.859,1.465
16.113,12.695,24.902,6.836,3.906
23.438,13.672,22.949,12.207,47.363
15.625,14.16,22.461,10.742,-1.465
2.441,10.742,22.949,9.277,-2.441
5.371,14.16,23.438,10.254,42.48
20.508,15.137,22.949,10.742,62.012
28.32,11.719,22.949,10.254,58.105
21.484,15.137,25.879,10.254,13.184
14.16,19.043,24.414,13.672,35.645
6.836,18.066,20.996,10.742,47.852
17.578,9.766,23.438,7.324,24.902
26.855,11.23,31.738,16.602,15.137
19.531,16.602,39.062,25.391,33.203
19.531,17.09,29.297,21.973,26.855
16.602,19.043,24.902,16.113,24.902
22.461,19.043,33.691,14.16,3.906
37.109,18.555,34.18,19.043,28.809
26.367,20.996,35.645,18.555,15.625
19.531,22.461,38.574,15.625,-18.066
18.555,20.508,34.18,16.602,-47.363
18.066,16.113,30.273,13.184,-58.594
26.367,17.09,36.621,16.602,-10.742
22.461,19.043,41.992,22.461,-17.578
10.742,20.02,39.062,19.043,33.691
4.395,22.949,36.133,14.16,52.246
14.648,23.438,35.645,13.184,4.883
26.855,22.949,38.086,15.137,52.734
25.391,25.879,41.504,19.043,41.504
19.531,27.344,44.922,19.531,0.977
18.555,31.738,39.551,13.672,43.457
19.531,33.203,35.645,12.695,29.785
28.32,28.809,41.504,15.625,30.273
32.715,30.273,48.34,18.066,20.02
23.438,33.691,41.016,13.184,19.043
11.719,27.344,27.832,6.836,16.602
11.23,23.438,29.785,9.277,-15.137
25.879,25.879,36.621,19.531,54.688
33.203,27.832,36.133,20.996,73.242
24.414,27.832,34.18,20.02,3.418
10.742,22.949,35.156,14.648,44.922
10.742,21.973,34.18,8.789,40.039
30.762,29.785,31.25,14.648,-55.176
34.668,34.18,37.109,16.113,30.762
22.461,40.039,36.621,16.602,38.086
15.625,41.504,33.203,15.625,-4.883
9.277,33.691,34.668,13.184,41.992
16.113,26.855,31.25,17.578,42.48
28.809,28.809,35.156,21.973,50.781
17.578,29.297,43.457,18.555,56.152
6.348,23.926,35.156,16.113,31.738
15.137,26.367,28.32,15.625,26.367
32.715,32.715,30.273,16.113,78.613
37.598,36.621,31.738,21.484,105.469
26.855,37.109,41.992,22.461,27.344
20.02,39.062,44.434,22.949,28.809
22.461,41.504,40.039,21.973,79.59
31.25,37.109,42.48,21.484,22.461
41.992,31.738,48.34,28.32,0
35.156,31.738,47.363,30.273,19.043
22.949,36.133,33.691,27.344,-13.672
17.578,33.203,30.762,22.949,-19.043
23.926,25.879,29.785,21.973,1.953
33.203,25.391,30.273,23.438,-17.578
24.414,28.809,41.992,22.461,-8.301
17.578,30.273,45.41,21.484,-13.672
17.578,33.691,37.598,22.461,-33.691
20.508,36.133,38.086,20.996,-51.27
28.32,32.227,39.062,19.531,11.719
19.043,30.762,43.457,20.02,11.23
8.301,28.809,52.734,19.531,14.16
2.93,25.879,46.387,17.09,93.262
0.488,24.414,36.621,7.812,93.75
11.23,27.832,35.645,6.348,43.457
12.207,31.738,38.574,8.789,37.109
0,33.203,35.645,8.301,48.34
-5.371,34.668,28.32,6.836,-8.789
-1.465,34.668,30.762,6.836,-26.855
8.789,30.762,30.762,6.348,14.16
13.184,27.344,37.598,2.93,69.336
3.418,29.297,43.457,2.441,44.434
-5.859,32.227,35.645,1.465,26.855
-2.93,35.645,34.18,3.906,52.246
9.766,32.715,35.156,12.207,40.527
17.578,28.809,35.645,18.555,61.523
13.184,28.809,33.691,20.996,-10.254
2.93,24.902,24.902,13.184,-53.711
0,20.02,21.484,3.418,-25.879
16.113,20.02,29.297,0.977,20.996
30.273,25.391,31.738,4.395,36.133
20.996,26.855,34.18,8.789,-17.09
9.766,24.902,24.902,3.906,30.762
10.742,27.832,15.137,1.465,42.48
22.461,29.785,14.16,4.883,26.367
25.391,27.832,20.02,10.742,89.844
14.648,26.855,21.973,13.672,90.82
6.348,20.02,18.555,12.207,11.23
0,18.066,20.02,10.254,26.855
6.836,23.926,20.02,5.371,70.312
21.973,25.391,22.949,8.301,2.441
14.648,24.414,22.949,11.719,28.32
-2.441,24.902,20.996,7.812,82.52
-5.859,31.738,20.02,3.906,10.742
5.371,37.598,17.09,0.977,31.738
16.113,32.715,13.184,1.953,44.434
5.371,26.367,14.16,5.371,8.301
-1.953,24.902,11.719,8.789,38.574
1.465,25.879,8.301,11.23,3.418
0.488,25.879,9.277,8.789,-6.836
17.578,26.367,7.324,9.277,14.16
19.531,23.926,9.766,14.16,27.344
3.418,17.578,8.789,15.625,17.578
-2.441,17.09,6.836,7.812,-18.555
0,15.625,6.348,3.906,-23.438
19.531,15.137,13.184,14.648,21.973
25.391,18.066,25.391,19.043,23.926
10.742,16.113,27.832,15.137,45.898
2.93,9.766,21.973,13.184,24.902
1.465,8.789,22.461,4.883,-2.93
11.719,12.207,30.762,2.93,34.668
19.043,12.207,36.621,7.812,39.551
7.812,15.625,36.133,11.23,19.043
-7.812,16.602,28.32,6.836,20.508
-5.371,13.672,28.809,-0.488,10.254
15.625,13.184,35.156,5.371,1.953
24.414,14.648,33.691,15.137,55.664
15.137,20.02,41.016,15.137,57.617
4.883,20.02,40.527,12.695,33.203
3.418,20.02,35.156,17.09,56.152
20.508,23.926,45.41,20.02,56.641
30.273,18.555,53.711,22.461,13.672
21.973,15.625,53.711,21.484,22.949
10.742,15.625,51.758,14.16,61.035
11.719,16.113,47.363,12.695,25.391
27.832,17.578,46.387,19.531,-6.348
41.504,21.484,59.082,26.367,18.066
30.762,24.902,62.012,22.949,34.668
21.973,22.949,53.711,16.602,71.289
19.531,19.531,47.363,11.23,54.199
24.902,19.043,41.992,6.836,1.953
38.574,18.555,41.992,13.184,66.895
28.809,16.113,48.828,20.996,84.961
17.09,11.23,49.316,17.578,21.973
16.113,3.906,41.504,10.742,1.465
22.949,5.859,41.504,12.695,-6.348
37.109,14.16,46.387,24.414,22.461
36.621,14.648,50.781,33.691,4.395
23.438,13.184,50.293,32.715,-40.527
18.555,11.719,50.293,23.438,7.812
25.879,11.719,56.152,23.438,63.965
32.715,14.648,49.316,29.785,39.551
27.832,17.578,46.387,24.902,65.918
20.996,16.602,50.293,21.973,64.453
16.602,12.207,31.738,18.066,31.25
18.555,10.742,21.973,16.602,0.977
32.227,12.695,34.18,22.949,-12.695
34.668,11.719,39.551,28.32,29.785
20.996,9.277,36.621,25.391,66.406
11.23,15.137,30.762,19.531,103.027
10.742,21.973,35.156,18.066,88.379
20.996,22.949,35.645,18.555,2.93
30.762,24.902,32.715,23.926,-13.672
19.043,24.414,31.25,25.391,26.367
10.742,23.926,27.832,16.113,-1.465
12.207,24.902,29.785,7.812,-26.855
19.043,22.949,30.273,7.812,-24.414
15.625,17.578,31.25,8.301,6.348
8.301,13.672,27.832,14.16,-12.695
7.324,11.719,24.902,17.578,-65.43
6.348,7.812,26.855,13.184,-38.086
17.578,6.836,22.461,11.719,42.48
26.855,10.254,22.461,13.672,87.891
18.555,14.16,29.297,21.484,67.383
9.277,16.113,28.32,22.949,-1.465
5.859,16.113,26.855,15.625,17.578
17.578,15.625,22.949,12.207,40.039
30.762,21.973,22.461,15.137,52.734
25.879,27.832,26.367,18.555,78.613
18.555,26.855,17.09,14.16,20.02
13.184,30.273,15.625,8.301,-12.207
17.578,30.273,15.137,10.742,15.137
26.367,27.344,16.602,15.625,18.066
20.996,26.855,23.438,14.648,6.836
8.301,26.367,23.438,12.695,34.18
6.348,25.391,21.973,11.719,58.594
17.09,23.926,25.391,12.695,56.641
28.809,23.926,28.809,19.043,17.09
27.832,26.367,31.738,17.09,-35.645
19.531,27.832,28.809,12.695,-4.883
11.719,22.461,22.461,14.648,53.223
11.719,18.066,23.926,10.254,78.125
23.438,23.438,24.414,10.742,76.66
23.438,29.785,24.414,13.184,78.125
15.625,30.762,17.578,13.672,47.852
14.648,23.438,10.254,17.09,76.66
16.602,19.043,12.207,12.207,144.043
26.855,22.461,22.949,10.254,120.605
29.297,22.949,31.738,20.02,120.117
17.578,23.438,26.855,21.973,132.324
13.184,25.391,19.043,15.625,142.09
17.09,30.762,20.02,17.09,123.047
26.367,33.203,11.23,20.508,54.199
35.645,33.691,12.695,26.855,18.555
29.297,36.133,21.484,32.715,25.391
17.578,36.133,16.113,24.902,12.207
16.113,32.227,14.648,17.578,11.23
32.227,33.691,13.184,23.438,29.785
43.457,36.621,20.508,31.25,76.66
34.18,36.133,32.715,30.762,62.012
23.926,37.109,26.855,24.902,26.855
22.949,30.762,22.949,19.043,14.648
29.785,24.902,20.508,18.555,-13.184
34.18,27.344,16.113,21.973,31.738
20.02,30.762,22.949,24.414,20.02
9.766,29.297,27.344,21.973,-3.418
10.254,28.32,22.949,17.578,16.113
16.113,27.832,22.949,14.16,32.227
28.809,27.832,26.367,18.066,-36.621
20.508,28.32,29.785,20.508,-36.133
7.324,23.438,17.09,15.625,-0.977
0.488,19.531,8.301,17.09,-26.855
9.277,19.531,11.23,18.066,-19.531
25.391,20.02,18.066,20.508,17.09
23.438,19.531,19.043,24.414,38.574
14.16,20.508,18.555,18.555,76.66
3.418,20.996,21.973,10.742,91.309
14.648,20.508,18.555,11.719,34.18
29.785,17.09,20.02,21.484,-14.648
20.508,12.207,27.832,30.273,-1.953
11.23,6.348,24.414,24.414,40.039
6.836,6.836,15.137,17.09,12.695
9.766,8.789,14.16,12.695,-25.391
20.02,10.742,17.578,8.301,-10.254
18.555,12.695,20.02,11.23,44.434
7.812,15.625,20.996,13.184,-0.977
4.883,14.648,20.508,8.301,4.883
7.812,9.766,17.09,4.395,40.039
21.484,13.672,19.043,13.184,59.082
25.391,16.113,20.508,22.461,83.984
15.625,14.648,13.184,25.391,25.391
11.23,22.949,8.789,23.926,-18.066
10.742,27.832,10.254,19.043,13.184
26.855,23.438,2.441,22.949,29.785
32.715,18.066,9.766,22.949,64.453
19.531,15.137,20.02,25.391,98.145
9.277,13.184,17.09,22.949,75.684
8.301,11.719,14.648,13.672,23.438
23.926,14.16,15.137,15.137,68.359
27.832,16.113,29.297,20.508,90.332
17.578,18.555,38.086,21.484,13.672
7.812,16.113,33.691,19.531,-49.805
1.953,13.672,32.715,16.113,3.418
14.648,18.555,34.18,14.648,54.688
27.344,23.438,30.273,25.391,17.09
19.531,27.832,23.926,32.715,-12.207
16.602,28.809,25.391,23.438,23.438
13.184,30.273,23.926,16.113,0.977
16.602,37.109,16.113,18.555,-2.441
24.414,34.668,18.066,22.949,34.18
15.137,28.32,17.578,24.414,47.852
7.812,32.227,14.648,24.414,43.457
3.418,33.203,21.484,20.508,43.457
14.16,32.715,19.043,22.949,19.531
28.809,31.25,20.02,27.832,10.254
19.043,31.738,23.438,26.367,50.781
6.836,34.668,20.02,21.973,38.574
2.441,34.668,18.555,19.043,38.574
8.301,36.133,21.484,18.066,65.918
26.367,36.133,22.949,19.043,69.824
29.297,34.18,29.297,28.32,68.848
17.09,27.344,29.785,30.273,3.418
9.766,21.484,20.996,19.531,30.273
11.719,23.926,10.254,16.113,25.879
20.996,25.391,6.348,20.508,-17.09
27.832,23.438,14.16,24.414,59.57
21.484,20.02,15.625,22.461,64.453
16.113,18.555,9.277,18.555,48.828
23.438,21.973,4.883,15.625,35.156
38.086,19.531,16.113,17.578,26.855
41.992,19.043,25.879,25.879,35.156
28.809,23.926,24.414,22.949,22.461
18.066,25.391,25.391,16.113,60.547
15.625,27.832,26.367,12.695,72.754
26.367,27.832,23.438,13.184,29.297
26.855,25.879,21.484,18.555,14.648
9.277,29.297,18.066,20.996,-26.855
2.93,34.668,12.207,13.672,-41.504
2.93,36.133,7.812,5.859,20.996
16.602,34.668,9.277,12.207,20.02
33.203,35.156,15.625,23.438,-24.902
24.414,31.738,18.555,27.344,-16.602
8.301,25.391,14.16,25.391,25.879
7.324,26.367,11.23,23.926,-1.465
20.996,22.949,6.348,23.926,-9.277
29.297,23.438,7.324,25.879,-23.438
21.973,25.391,26.367,26.367,-36.133
15.625,27.344,30.762,25.879,24.414
7.812,32.227,16.602,25.879,31.25
10.742,35.645,15.625,25.391,-26.367
26.367,39.062,32.715,27.832,-43.457
25.879,40.039,37.109,31.25,-9.277
14.648,35.156,26.855,30.762,7.324
10.254,29.785,20.02,28.809,43.945
12.695,27.344,14.16,24.414,-8.301
17.578,20.02,16.602,23.926,-14.648
12.695,20.996,27.832,26.855,22.461
8.789,20.996,25.879,24.902,55.176
7.324,19.531,16.602,19.531,40.039
15.625,20.508,13.184,18.555,37.109
28.809,16.602,19.531,23.438,37.598
18.555,11.719,20.996,25.391,32.227
6.836,9.277,17.09,24.414,51.758
5.371,8.301,10.742,17.09,11.23
14.648,10.742,12.695,15.625,27.832
27.344,15.625,20.508,23.438,-5.859
25.391,18.066,18.066,26.367,-32.715
21.973,20.508,20.996,27.344,10.742
17.09,22.949,27.344,20.02,23.926
16.113,19.043,27.832,16.113,-22.949
29.297,16.113,28.809,16.113,38.086
32.715,18.555,30.762,19.531,94.727
22.949,19.531,29.785,23.438,12.207
13.672,19.531,31.25,20.508,44.434
18.555,16.602,24.414,18.555,37.598
35.156,17.09,24.414,19.043,41.016
36.621,20.996,31.738,24.414,44.922
26.367,20.996,25.879,30.273,-11.719
21.973,16.602,21.484,27.344,1.953
20.508,17.578,23.438,21.484,36.133
32.227,16.602,18.066,19.043,41.992
41.016,19.531,20.02,22.461,41.504
26.367,27.344,29.297,26.855,28.809
15.137,26.855,23.438,23.438,20.02
11.719,26.367,13.672,17.578,41.992
18.066,24.902,7.812,14.16,51.758
25.391,23.926,13.672,19.531,19.531
12.207,26.855,18.555,18.066,42.48
-0.488,25.879,12.695,14.16,24.414
-3.906,24.902,12.695,12.207,13.184
2.441,24.414,17.09,5.859,5.371
13.184,27.832,22.949,10.254,-69.824
8.789,35.156,27.344,15.625,13.672
0.488,35.156,21.484,12.207,64.941
1.953,31.738,16.602,10.742,20.996
11.23,30.273,14.16,12.695,37.598
23.926,30.273,14.648,15.625,-3.906
19.531,33.691,17.09,20.02,-52.246
9.277,35.156,20.996,20.996,14.648
10.254,35.156,20.508,16.602,10.254
18.066,38.574,17.578,13.184,9.766
25.879,37.598,16.113,8.301,57.129
21.484,35.156,17.578,9.277,-6.348
6.836,25.391,23.926,17.578,18.066
-2.441,21.484,26.855,15.137,95.703
0,23.438,17.09,8.789,83.984
9.766,21.973,16.602,15.625,52.734
10.742,26.367,25.391,19.043,46.875
0.488,27.344,18.555,12.695,48.828
-3.418,25.391,11.23,9.277,-0.488
-4.883,24.414,7.812,5.371,-26.367
0.488,22.949,14.16,11.23,-27.344
9.766,22.949,24.902,21.973,-27.832
0.977,25.391,15.625,20.02,-48.828
-6.348,26.367,11.719,20.02,-37.598
-3.418,22.461,24.414,15.137,35.645
8.301,20.508,27.344,18.066,41.016
14.648,22.461,36.621,27.832,60.059
6.348,25.879,45.898,26.367,88.867
0.488,24.414,31.25,24.414,97.168
-1.465,18.066,22.461,17.09,115.234
12.207,18.555,21.484,18.066,88.867
23.438,23.926,23.438,25.879,30.273
11.719,20.996,24.414,21.973,21.973
2.441,16.602,21.973,15.625,64.453
1.465,19.043,20.508,13.184,81.055
12.695,22.949,20.996,17.09,44.434
20.996,20.996,23.438,19.531,43.457
13.672,21.973,18.066,17.578,13.672
8.301,25.879,10.742,13.672,-33.691
4.395,26.855,15.625,13.672,43.457
14.648,28.32,16.113,13.184,48.828
29.785,31.738,12.695,16.113,16.602
19.531,32.227,19.531,19.531,22.461
9.277,30.273,24.414,15.137,44.922
1.953,24.414,20.02,11.23,37.598
4.883,14.648,16.602,9.277,-19.531
18.555,11.719,23.926,15.137,13.672
10.742,10.742,27.832,17.578,68.359
-2.93,9.277,21.973,14.16,69.824
-8.789,11.719,17.578,7.812,12.695
-5.371,15.137,12.207,-1.465,-4.883
10.254,16.113,13.184,1.465,7.812
11.719,13.184,20.508,7.812,13.184
-3.418,13.672,15.625,6.836,4.395
-8.301,20.02,14.648,7.812,6.836
2.93,23.926,14.648,13.184,39.062
14.16,23.438,14.16,16.602,51.27
15.137,21.973,8.301,20.996,29.297
7.324,21.973,-0.977,22.461,-14.648
3.418,28.809,8.301,19.531,-4.395
6.836,31.738,14.16,17.09,76.66
21.484,27.344,16.113,15.625,29.785
25.879,27.344,23.926,20.02,-0.977
12.695,28.32,23.438,19.531,55.176
2.441,31.25,26.367,15.625,77.637
2.441,32.715,25.879,16.113,56.152
12.695,32.715,22.949,13.672,21.484
18.066,38.574,24.414,17.09,-3.418
9.277,37.598,23.926,18.555,-49.316
1.465,31.25,24.902,15.625,-41.504
4.883,23.438,15.137,12.695,-0.977
14.16,18.066,13.672,13.672,13.184
22.461,23.438,22.461,15.625,19.531
17.09,28.809,31.738,19.043,37.109
5.371,27.344,35.156,23.926,70.801
3.906,27.832,27.344,20.996,84.961
11.719,24.902,22.461,19.043,62.988
14.16,22.949,22.461,18.066,15.137
11.23,24.902,18.555,21.484,-1.953
15.137,21.484,17.578,20.996,32.715
12.695,18.066,16.602,14.648,43.457
20.02,19.531,15.137,19.043,52.246
33.203,22.949,17.09,23.926,42.969
26.367,21.484,13.672,22.949,-32.715
19.531,22.949,13.184,20.508,4.395
13.672,29.297,12.207,18.066,49.805
15.625,28.809,4.883,12.695,76.66
26.855,27.344,6.348,12.207,61.035
21.484,30.273,19.043,18.066,31.738
7.324,28.32,22.461,11.23,16.113
0,20.996,16.602,6.836,36.621
2.441,20.02,9.277,8.301,75.195
20.02,23.926,12.695,10.742,73.73
21.484,21.484,15.137,16.602,8.789
7.324,14.648,7.324,14.16,-55.176
2.93,11.23,9.277,10.254,10.254
7.812,16.602,13.672,12.695,66.406
18.555,22.949,18.555,12.207,30.273
19.043,20.02,21.484,9.277,-13.184
4.395,14.16,14.16,14.16,-43.945
1.465,11.719,11.719,15.625,20.508
9.277,11.719,7.812,14.648,26.855
21.484,16.602,6.836,20.508,-45.898
26.855,21.484,14.648,24.902,9.766
21.973,20.508,19.531,26.855,2.93
18.555,20.02,24.414,21.484,16.602
18.555,20.02,22.461,15.625,95.215
26.855,18.066,15.625,20.02,26.367
28.32,17.578,18.066,18.066,22.461
19.043,22.949,24.414,17.09,18.066
8.789,20.508,14.16,15.625,-38.086
4.395,19.043,10.742,9.766,28.32
14.16,21.973,16.602,14.16,64.941
21.973,20.996,20.508,16.602,3.906
7.812,21.484,20.02,18.555,47.363
-0.488,20.508,19.043,20.508,21.973
0.488,19.531,20.02,15.625,-13.184
6.836,20.996,17.09,14.648,-21.484
18.066,22.461,18.066,16.602,8.789
12.695,21.484,19.531,16.602,21.973
6.836,23.926,24.414,20.02,-21.973
7.812,25.391,27.344,21.973,6.348
14.16,18.555,21.973,20.996,44.434
25.391,13.184,29.785,24.414,31.25
22.949,14.648,43.457,29.297,43.945
7.324,10.742,39.551,26.367,46.387
-1.953,7.812,29.785,15.137,16.113
10.254,10.254,24.902,12.207,46.387
24.414,11.719,25.879,18.066,72.754
22.461,15.625,24.902,20.508,23.926
11.719,14.16,16.602,15.137,18.066
5.371,10.254,17.09,10.254,63.965
11.23,10.254,16.602,12.207,36.621
22.949,9.277,18.066,11.719,60.547
17.09,5.859,31.25,13.184,57.617
0,3.906,27.832,17.09,5.371
-10.742,7.324,14.16,15.137,-28.809
-5.371,10.254,14.16,15.625,-38.086
14.16,9.277,24.902,17.578,10.254
19.043,7.812,32.227,19.531,61.523
10.742,10.254,23.438,18.555,17.09
7.812,13.184,20.02,15.137,28.809
7.812,15.625,20.508,17.09,29.297
18.066,18.066,21.484,13.672,33.203
27.344,16.602,29.785,14.648,33.691
25.391,16.602,31.25,22.949,10.742
15.625,16.602,23.438,20.996,40.039
11.23,16.113,22.461,14.648,19.043
23.926,18.066,26.367,14.16,11.719
28.32,18.555,33.691,19.043,11.719
18.555,17.578,33.203,16.113,23.438
10.254,20.02,23.926,6.348,-1.465
1.953,21.484,18.066,0,-22.461
9.277,18.555,20.508,3.418,10.742
22.949,17.09,24.414,12.207,43.457
15.137,14.16,21.973,16.113,74.707
10.742,11.23,18.066,12.207,65.918
14.16,10.254,17.578,8.789,20.996
30.273,6.836,13.184,13.672,16.113
46.387,9.766,20.996,22.461,16.113
41.016,16.113,32.227,30.762,65.43
32.715,16.602,30.762,33.691,80.566
25.879,16.113,27.344,26.855,20.508
33.691,17.578,21.973,19.043,61.523
47.852,20.508,24.902,25.391,78.613
39.551,21.973,31.738,30.762,2.93
25.879,21.484,30.762,24.902,-16.602
21.973,24.414,28.32,16.602,-25.391
23.926,26.855,19.531,10.254,-37.598
30.762,30.273,20.996,12.207,-27.832
25.879,34.668,30.762,20.02,2.93
13.672,27.832,26.367,18.555,4.395
5.371,23.926,19.043,9.766,8.789
9.766,24.902,14.16,6.836,16.602
27.344,22.949,12.695,11.23,40.527
29.785,23.926,17.09,15.625,59.57
19.531,23.926,15.137,14.16,51.758
10.742,20.996,2.441,7.812,35.645
12.695,19.531,-4.883,9.766,60.547
25.391,22.949,0.977,17.09,22.461
29.785,33.203,17.578,27.344,-1.953
20.02,32.227,23.926,31.738,-0.977
10.742,20.02,20.02,23.438,6.836
13.672,16.113,13.672,19.531,-36.133
24.414,20.508,18.066,20.02,-26.367
26.855,18.555,28.809,21.484,42.48
17.09,19.531,22.949,19.531,55.176
8.789,21.973,14.16,9.277,89.844
8.789,23.926,10.254,7.812,61.035
24.414,26.855,12.695,12.207,-22.949
30.762,26.367,18.066,9.277,-25.879
15.625,22.949,16.113,9.277,40.039
9.277,21.973,15.625,8.789,54.688
9.766,21.973,7.324,6.836,-29.785
23.438,20.996,0,14.648,-4.883
24.902,20.996,14.648,16.113,7.324
5.859,24.414,26.855,12.207,-5.859
-0.488,23.438,22.461,11.23,38.574
-0.488,20.996,22.949,13.184,35.156
7.812,24.902,27.344,16.602,32.715
17.09,25.391,29.297,17.578,23.926
10.254,19.531,26.367,22.949,20.508
8.301,17.09,18.555,24.902,52.734
12.207,15.137,19.043,18.066,59.57
18.066,17.578,19.043,17.09,66.406
24.414,21.973,18.066,20.02,34.18
15.625,19.531,28.32,20.996,44.434
4.883,16.602,27.344,21.973,32.715
0,15.625,24.902,21.484,-3.906
5.371,14.16,26.367,20.02,51.27
21.484,16.602,28.809,24.902,64.453
23.438,17.578,28.32,28.809,41.016
12.695,15.625,23.438,28.32,-23.926
10.254,16.602,23.926,22.949,-9.277
13.184,14.16,19.043,17.578,53.223
23.926,12.207,20.02,19.043,66.406
26.367,12.207,17.578,20.508,43.457
18.555,13.184,7.812,22.461,60.547
13.184,16.602,10.742,20.996,117.676
12.695,15.137,6.836,16.602,62.5
24.902,10.254,7.324,21.973,0
28.32,8.789,24.414,27.832,37.598
16.602,10.254,25.879,26.855,83.984
9.766,10.254,21.973,20.508,86.426
8.789,11.23,20.996,18.066,14.648
20.508,11.23,26.855,19.531,34.668
24.902,10.742,29.297,18.555,61.035
16.602,16.602,23.438,18.066,20.02
15.137,16.113,29.785,19.043,-16.602
15.137,14.16,33.203,19.043,-6.836
22.461,18.555,33.691,19.043,11.23
31.738,22.461,39.062,25.879,33.203
23.926,23.438,32.715,30.762,67.383
14.16,23.438,21.973,21.973,20.508
13.184,27.344,28.32,19.043,18.555
20.508,23.926,30.762,19.043,70.312
28.32,20.996,34.668,20.996,118.164
13.672,18.555,33.203,23.438,72.754
3.906,16.602,27.832,20.996,17.09
6.348,21.973,28.32,21.484,10.254
18.066,23.438,31.25,24.414,-32.715
28.32,20.02,41.992,30.273,29.297
18.555,17.578,48.34,30.762,67.383
10.254,20.02,45.41,27.832,41.992
6.348,22.461,39.551,21.973,6.836
9.766,27.344,35.645,20.508,-8.301
22.461,32.715,41.016,21.973,23.438
18.555,34.18,42.48,22.461,53.711
7.812,36.621,37.109,23.926,32.227
1.465,34.668,39.062,18.066,-43.945
9.277,33.691,40.039,13.672,41.992
22.949,37.598,40.527,19.531,68.359
17.09,40.039,47.852,20.02,39.062
2.93,41.016,48.34,16.113,24.902
-2.441,41.992,38.574,12.207,4.395
-1.465,38.574,34.18,-0.488,56.641
12.207,28.32,40.527,2.441,81.543
16.113,21.484,45.41,14.648,29.297
-0.488,29.297,38.086,2.441,-2.93
-18.066,35.156,36.621,-17.09,-28.32
-25.879,31.738,43.945,-20.508,-2.93
-12.207,29.297,52.246,-12.695,8.789
-14.648,29.785,46.875,-14.648,-21.484
-31.738,30.762,43.457,-22.949,-7.812
-41.016,30.273,45.898,-32.227,-20.02
-45.898,32.227,31.738,-44.434,-23.926
-37.598,32.715,34.668,-46.387,72.754
-30.273,32.227,51.27,-43.945,55.176
-45.41,37.109,48.34,-51.27,20.02
-54.199,39.551,34.668,-58.594,60.547
-58.105,35.156,30.273,-62.012,36.133
-53.223,38.574,37.109,-67.871,36.133
-39.551,43.945,44.922,-64.941,47.852
-48.828,39.062,42.48,-64.941,24.414
-63.477,32.227,34.18,-74.219,12.207
-64.453,35.156,28.32,-81.543,0.488
-48.828,40.039,32.227,-79.59,27.344
-31.738,41.992,40.527,-66.895,56.152
-44.434,41.504,36.621,-68.848,1.465
-53.711,40.039,28.809,-72.266,-20.996
-51.27,39.551,21.973,-68.848,16.113
-50.781,37.109,14.648,-70.801,1.465
-41.504,36.133,26.855,-62.988,5.371
-44.434,35.156,35.156,-55.664,20.508
-48.828,35.156,20.508,-56.152,27.832
-56.152,31.738,22.949,-60.547,41.992
-54.688,26.855,24.414,-65.918,44.922
-30.273,33.203,27.344,-58.594,75.684
-35.156,33.691,36.133,-50.293,78.125
-53.223,29.785,30.762,-47.363,45.41
-54.199,27.832,22.949,-47.363,0.488
-40.527,29.297,17.09,-45.41,-25.391
-27.344,29.785,20.02,-40.527,63.965
-24.902,30.762,23.926,-33.203,101.562
-18.555,31.25,21.973,-21.973,62.5
-20.02,31.738,7.324,-20.508,29.785
-22.461,33.203,10.254,-24.414,20.02
-5.859,30.273,27.344,-15.625,41.016
6.836,26.367,27.832,1.465,29.785
1.465,25.879,21.484,10.254,6.836
-3.418,26.855,27.832,8.789,10.254
2.441,25.391,26.367,8.789,53.223
13.184,19.531,18.555,16.602,47.363
25.879,19.531,28.32,31.25,-20.508
27.344,23.926,28.32,43.945,6.348
14.16,21.484,21.973,38.086,41.504
20.02,23.926,14.16,35.645,44.922
41.504,27.344,12.695,43.457,30.762
50.781,24.902,20.508,54.688,9.277
51.758,26.367,17.578,59.082,43.457
50.293,21.484,19.531,56.152,42.969
41.504,20.508,15.625,50.781,43.457
58.105,24.414,13.184,54.199,7.812
76.66,24.414,22.461,62.988,-20.508
69.824,24.414,20.996,66.406,-3.418
62.012,27.344,14.648,64.941,32.715
57.129,26.367,13.672,63.965,-6.836
63.965,24.902,11.719,62.988,-32.715
73.73,27.344,16.113,67.871,37.109
59.082,25.879,15.137,69.336,18.555
46.875,27.832,10.742,63.477,-27.344
44.922,29.785,13.184,58.594,-16.113
49.805,29.297,6.348,50.781,64.941
60.059,30.762,5.859,48.828,39.551
57.129,29.785,9.766,54.199,3.906
45.898,26.855,4.395,55.176,9.277
36.133,23.438,-5.371,54.199,-8.789
45.898,24.414,-5.859,54.199,6.836
62.5,27.344,6.836,62.012,13.184
60.059,28.32,8.301,65.918,38.574
48.34,22.949,3.906,58.594,57.129
41.504,17.09,1.465,54.199,32.715
46.387,15.137,0,49.316,41.504
62.988,16.602,4.395,48.828,30.762
67.383,16.602,7.812,53.223,42.969
53.711,16.113,10.254,52.246,90.82
40.527,18.066,15.137,44.922,83.984
45.41,20.508,11.719,44.922,91.797
