TP9,AF7,AF8,TP10,Right AUX
17.09,21.484,21.484,14.16,19.043
32.227,-12.695,16.602,17.09,-38.574
36.621,23.438,16.113,21.973,14.16
30.762,72.266,19.531,26.367,2.441
24.414,38.574,21.973,27.832,-34.18
21.484,-14.16,22.949,25.391,2.93
31.25,-14.16,19.531,27.344,31.738
38.086,35.645,27.344,35.645,16.602
35.156,88.379,31.738,33.203,7.324
26.855,83.008,20.996,27.344,83.984
25.391,29.297,14.648,25.879,66.406
37.109,26.367,20.02,23.926,30.762
38.574,-23.438,11.23,27.832,23.438
25.391,-11.719,13.184,23.926,14.16
19.043,84.473,32.227,25.879,38.574
20.02,52.246,24.902,22.949,14.16
30.273,34.18,17.578,22.949,29.297
44.434,37.598,20.996,35.645,24.902
44.434,77.637,30.762,34.668,44.922
48.828,51.27,30.273,36.621,39.062
48.828,-2.441,33.203,38.574,0
45.898,47.852,25.391,32.715,26.367
48.828,0.488,7.812,27.832,-3.418
50.293,16.602,25.879,42.969,44.434
58.105,91.797,34.668,56.152,83.984
29.297,40.039,15.137,23.438,22.461
8.301,23.438,9.766,0,8.301
29.785,44.922,17.578,10.254,4.883
20.508,63.477,25.879,5.859,-39.062
18.066,28.32,14.16,3.418,-40.527
27.344,2.93,7.812,4.883,-37.598
24.414,47.852,12.207,6.348,-22.949
32.715,10.742,9.277,15.137,-6.348
24.902,31.25,14.648,6.348,28.32
22.949,111.328,23.438,8.789,44.434
22.461,71.289,21.973,13.184,0
13.184,63.477,7.324,-0.977,-4.883
30.273,54.688,5.371,10.742,28.32
33.203,71.289,20.508,22.461,66.895
28.32,97.168,24.414,21.484,78.613
32.715,37.598,13.184,23.438,44.434
26.855,-18.555,7.812,23.438,-28.32
27.832,-5.859,14.16,18.066,-45.898
38.574,52.734,23.926,18.555,-26.855
35.156,138.672,35.156,25.391,35.156
35.156,114.746,27.832,24.414,42.48
30.762,64.941,21.484,20.996,-17.09
32.715,61.523,17.578,18.066,-0.488
40.527,46.875,19.043,20.508,30.762
38.086,100.586,30.762,23.438,7.812
40.527,129.883,28.809,26.855,-2.93
33.203,86.914,17.578,29.297,3.906
36.133,87.402,21.973,30.273,30.762
53.223,115.234,32.715,40.527,78.613
52.246,137.207,27.344,43.457,62.012
41.016,132.812,21.484,43.945,-21.484
30.762,141.113,22.949,36.133,-42.969
42.48,133.789,12.695,27.344,-12.207
53.223,139.16,19.043,36.133,19.043
40.527,179.688,27.832,41.504,76.172
38.086,135.254,15.137,41.016,50.293
33.691,77.148,4.883,28.809,-12.695
30.273,82.52,16.113,25.879,1.465
42.48,50.781,17.09,26.855,27.832
40.527,103.027,19.531,22.949,43.945
28.32,138.184,20.508,25.879,44.922
31.738,86.914,12.695,26.855,23.926
29.785,128.906,20.508,22.949,42.48
41.016,93.75,24.902,23.438,75.195
45.41,90.332,21.484,30.762,32.715
31.738,186.035,19.043,24.414,47.363
23.926,161.621,15.137,20.996,43.457
17.09,139.648,11.719,21.973,49.316
28.32,125.488,13.184,25.391,23.926
35.156,152.344,20.02,31.25,10.742
34.668,156.738,17.09,27.832,17.578
24.414,73.73,7.324,25.879,-48.828
20.996,10.742,11.23,25.879,-19.531
31.738,0.977,23.926,25.391,44.434
38.086,48.34,27.832,24.902,61.523
31.738,131.836,28.32,21.484,53.223
29.297,99.609,20.508,23.438,12.207
22.461,51.27,15.625,16.113,-23.438
33.203,43.945,14.16,18.066,-2.93
62.988,79.102,17.09,39.551,23.926
63.965,119.141,24.414,50.781,69.824
33.691,71.289,25.879,37.598,61.523
5.859,26.367,26.367,9.277,-12.207
0,1.465,25.879,0.488,-11.23
14.648,-5.371,25.391,27.832,7.324
9.766,24.902,27.344,30.762,-24.902
6.836,32.227,30.273,24.902,-47.852
5.859,7.812,26.855,30.762,-14.16
7.812,15.625,25.391,25.879,37.109
24.902,-20.508,27.832,26.367,44.922
20.02,28.809,25.391,30.762,2.93
14.16,89.844,23.438,24.902,30.273
16.113,39.062,31.25,28.32,67.383
17.578,9.766,34.668,33.691,29.785
20.02,38.574,26.855,32.227,48.828
16.602,67.383,20.996,31.25,40.039
19.531,27.344,17.09,34.668,46.875
16.602,14.648,18.066,28.809,59.57
12.207,40.527,21.973,20.996,-12.695
23.926,-7.812,21.973,28.809,-22.949
28.809,22.461,29.297,32.227,-5.859
22.461,104.492,28.809,27.832,56.152
22.461,57.617,22.949,25.391,46.875
19.043,35.156,20.508,20.508,0.488
14.16,48.828,19.043,11.23,56.641
21.484,65.918,22.949,21.484,33.691
27.832,62.012,25.391,27.344,-51.27
22.461,39.062,28.32,25.391,4.395
19.043,-7.324,16.113,21.484,34.668
35.645,-38.086,21.973,28.809,6.836
36.133,23.438,28.809,33.691,36.621
18.066,105.469,18.555,20.996,39.551
5.371,68.359,16.113,13.672,25.879
7.324,36.133,14.648,12.207,55.664
15.137,9.277,5.371,20.996,31.25
20.508,41.504,8.789,18.066,27.344
25.879,61.035,18.555,19.531,48.828
22.949,23.926,18.066,23.926,-13.672
18.066,16.113,12.207,14.648,-2.441
20.02,-2.441,10.254,17.578,36.133
22.461,-1.465,14.648,18.555,21.973
12.695,56.641,12.207,13.184,58.105
9.766,57.129,10.742,14.16,56.152
13.184,17.578,15.137,10.254,-5.859
19.531,-11.23,16.602,10.742,15.625
20.508,-33.203,10.742,11.23,52.246
13.672,46.875,16.113,12.207,7.812
10.742,66.406,15.625,19.043,-24.414
1.953,20.02,8.789,8.301,1.953
6.836,9.277,12.207,2.93,56.641
20.02,12.207,11.23,17.578,79.59
11.23,33.203,22.949,21.973,8.301
8.301,23.438,20.508,19.531,4.883
7.324,-4.395,6.836,12.695,-8.301
12.207,15.625,10.742,6.836,-61.523
25.879,-7.324,11.23,6.348,2.93
22.949,35.645,16.113,7.812,15.625
17.09,106.934,31.25,16.113,33.203
13.672,54.688,29.297,14.648,75.684
13.184,15.625,14.648,7.812,72.754
20.996,22.461,14.648,12.207,33.691
24.414,49.805,23.926,20.02,-10.742
19.531,64.941,21.973,19.043,12.207
11.719,32.227,18.555,18.066,30.273
16.602,-44.922,13.672,19.043,-16.113
25.879,-12.207,18.066,20.02,-12.207
21.484,79.59,29.297,22.461,0.977
24.414,84.961,26.855,22.949,1.953
24.414,51.758,25.879,18.555,32.715
15.137,32.715,20.508,12.207,26.855
25.391,-13.184,8.301,12.207,55.176
30.762,10.254,8.301,10.254,87.891
27.344,76.172,17.09,16.602,0.977
30.273,43.457,15.137,20.02,-32.715
26.855,23.438,13.672,13.184,-0.977
32.715,6.348,17.578,20.508,16.113
41.504,16.602,19.043,28.32,24.902
32.715,51.758,14.648,22.461,42.969
24.414,50.293,20.996,24.414,71.289
20.996,-6.348,15.625,23.438,26.367
30.273,-52.246,8.301,19.043,-22.949
34.18,24.414,17.578,14.648,-5.371
20.508,84.961,22.949,14.648,19.043
20.508,40.527,19.043,12.695,54.199
18.066,1.953,15.137,8.789,13.672
23.926,-35.645,16.113,11.23,-37.109
30.762,-11.719,26.367,16.602,38.086
29.785,62.012,28.809,24.902,39.551
31.25,22.461,25.879,26.855,11.23
19.531,1.465,29.297,20.02,36.133
13.672,12.695,23.926,13.184,53.711
23.926,-30.762,20.996,12.207,44.922
22.949,42.48,22.949,13.184,18.555
17.09,69.824,22.949,10.742,46.387
13.184,4.395,17.09,8.789,41.992
10.742,-0.488,16.113,15.137,17.578
17.578,18.555,21.973,12.207,-1.953
21.973,59.57,28.809,13.672,-19.043
19.043,55.664,26.367,15.137,13.184
7.324,27.832,15.137,3.906,48.828
6.836,-18.555,4.395,15.625,52.246
20.02,-57.129,8.301,18.555,20.996
13.672,27.832,27.344,5.371,24.902
15.625,97.656,28.32,13.184,27.832
13.672,52.246,19.531,10.254,34.668
4.883,18.555,20.02,5.371,30.762
18.555,24.902,21.973,9.766,23.438
24.414,71.289,37.109,15.137,64.941
15.137,46.387,37.598,13.184,50.781
3.418,7.324,22.949,4.883,3.906
5.371,7.324,24.902,-4.883,0.977
15.625,18.555,33.203,4.395,83.984
19.531,28.32,32.227,17.578,86.426
21.484,37.109,30.762,13.184,31.25
16.602,43.945,33.203,8.301,24.414
12.207,38.574,33.691,10.742,28.809
29.785,-15.137,29.297,16.602,40.039
37.109,-2.441,37.598,16.602,29.785
22.461,104.98,46.387,16.113,50.293
17.09,85.938,42.48,22.949,45.41
15.137,39.551,38.086,20.996,2.441
12.207,24.902,28.809,13.672,41.992
17.578,36.133,32.227,12.207,48.828
11.719,62.5,35.156,8.789,34.668
2.441,39.551,28.32,13.184,64.941
4.883,22.461,22.461,18.555,68.848
7.812,9.766,22.461,8.789,44.922
15.625,37.598,36.621,12.207,65.43
22.461,95.703,39.551,26.855,49.805
16.602,60.547,26.855,24.414,9.277
10.254,20.508,20.508,16.113,-28.32
13.184,-11.719,26.367,18.555,10.742
19.043,-10.254,29.297,17.578,50.781
23.438,76.66,35.645,19.043,51.758
19.531,76.172,37.598,20.508,-3.906
19.531,31.25,38.574,16.602,-28.32
17.578,0.977,31.738,16.602,49.316
20.996,-39.062,14.16,12.695,49.805
21.973,37.598,26.855,12.695,-4.883
15.137,103.516,38.086,12.695,43.457
11.23,50.781,24.414,13.672,52.246
9.766,14.648,22.949,9.766,34.668
22.461,32.227,26.367,6.348,55.176
27.344,83.008,33.203,18.066,34.18
16.113,78.613,39.062,22.461,11.23
11.719,43.945,21.973,13.184,34.668
15.137,3.418,15.137,16.113,33.203
24.414,19.531,22.949,21.973,26.367
27.344,61.035,20.508,21.973,64.941
20.508,55.176,24.902,24.414,38.086
20.02,69.336,26.367,21.973,47.852
18.066,16.602,18.555,19.531,32.715
27.344,-10.742,18.066,16.113,17.578
35.156,71.777,34.668,18.066,20.02
25.879,98.633,37.109,23.926,59.57
23.438,52.734,20.508,20.996,70.312
24.414,16.113,16.602,21.484,56.641
30.762,-18.555,14.648,24.902,19.043
32.715,39.551,27.832,22.949,17.578
30.762,61.523,28.32,23.438,-9.766
31.738,-5.371,20.508,24.902,-43.457
19.043,-11.719,23.926,17.578,5.859
19.531,-24.902,24.902,13.184,-8.789
31.738,-30.762,25.879,7.812,32.227
20.996,75.684,33.691,7.812,129.395
21.973,105.469,31.738,20.508,69.824
18.066,27.832,20.508,17.578,6.836
17.09,2.93,20.02,15.137,48.34
28.32,43.457,30.273,22.949,58.105
23.926,78.125,31.25,24.414,15.137
24.902,52.734,23.926,22.949,10.254
21.484,28.809,21.484,20.02,16.602
26.367,-32.715,12.207,20.996,-5.371
37.109,-44.922,7.812,14.16,-33.691
26.855,85.449,21.484,5.859,55.176
29.297,112.305,25.391,10.254,120.605
31.738,47.852,18.555,12.695,71.289
14.16,0.977,12.695,12.207,20.02
20.02,19.043,17.09,8.789,32.227
34.668,74.707,21.973,15.625,36.133
31.25,44.922,16.602,26.367,-2.441
27.344,13.184,21.484,18.066,0.977
26.367,10.742,20.02,12.695,53.711
38.086,17.09,22.461,19.531,84.473
36.621,29.297,28.32,31.738,76.66
30.273,32.227,23.438,34.668,41.016
31.738,24.414,28.32,30.273,1.465
26.367,-4.395,31.25,25.391,-4.883
35.645,16.602,33.691,27.832,20.508
39.551,79.102,35.156,27.344,75.684
28.32,67.383,23.438,20.508,41.992
20.02,32.227,21.973,22.461,22.949
14.16,14.16,18.066,25.879,25.391
24.902,-49.805,7.324,25.391,-4.395
30.273,-4.883,17.09,20.996,17.09
28.32,65.918,32.227,30.762,6.348
36.621,28.809,27.344,40.039,30.762
27.344,6.836,24.414,30.762,0.488
23.926,-33.203,23.926,24.902,-37.109
32.715,-1.953,22.949,30.762,10.742
34.668,96.191,29.785,32.227,40.527
26.855,70.801,29.297,25.879,21.484
28.32,22.949,28.32,33.203,18.066
42.48,-14.16,26.367,44.922,4.395
26.367,34.18,28.32,17.09,21.484
4.395,65.918,27.344,-4.395,25.391
2.93,25.879,25.391,-8.301,-1.465
-7.812,1.465,23.926,-10.742,-1.953
-9.766,-56.641,20.02,-4.883,29.785
0,-65.918,20.02,-9.277,-10.742
-3.418,41.504,26.367,-9.766,-31.738
4.883,80.078,29.297,0.488,25.391
13.672,33.203,24.414,4.395,-19.043
6.836,-24.902,22.461,4.395,-40.039
11.23,3.906,27.344,8.301,-26.855
22.949,80.078,26.855,15.625,26.855
27.832,58.105,23.926,24.414,67.871
12.207,9.277,18.066,20.996,-16.602
13.672,-31.25,14.16,15.625,-28.32
37.598,-0.977,18.555,26.855,47.852
37.109,20.508,17.09,35.645,24.902
31.738,8.789,20.02,32.227,-21.973
25.879,36.133,21.484,29.785,8.789
20.996,18.066,15.625,32.227,79.59
32.227,-57.617,8.301,24.414,62.988
41.504,12.207,18.066,23.926,34.18
37.109,87.891,22.461,33.203,20.02
22.461,55.176,23.438,33.203,37.598
25.879,26.855,20.02,39.551,80.566
43.945,15.625,14.648,37.598,64.941
51.27,62.5,24.902,40.039,21.973
41.016,60.547,21.484,42.969,32.715
31.738,-14.648,16.113,42.969,13.184
39.062,-24.902,12.695,48.34,-21.484
41.992,-42.48,6.836,40.039,-38.086
36.133,11.719,20.996,32.715,-8.789
29.297,114.746,27.832,37.109,31.25
26.855,68.359,21.484,36.133,-8.789
26.367,-6.836,12.207,31.738,-40.039
39.551,-14.16,15.137,39.551,-34.18
51.758,62.012,25.391,51.27,25.879
48.34,83.496,29.297,52.734,68.848
41.016,64.453,25.391,39.551,74.219
26.855,22.949,20.508,29.785,78.613
28.809,-52.734,17.578,27.832,43.457
45.41,-6.836,12.695,31.738,9.766
38.574,66.895,15.625,37.109,-41.504
34.18,46.875,16.113,40.039,16.113
27.832,13.184,15.137,34.668,36.133
29.785,-50.293,18.066,27.832,-24.414
43.945,-12.207,18.066,31.738,-7.324
37.598,77.148,18.066,30.273,49.316
29.785,41.504,20.996,30.762,71.289
32.227,-0.488,17.09,32.227,45.41
29.297,-21.484,11.719,29.297,65.43
38.086,-1.953,20.508,33.203,27.344
40.527,31.738,21.484,32.227,-18.066
31.738,27.832,21.484,28.809,-13.672
30.273,59.57,29.297,28.32,34.668
38.574,23.438,24.414,29.785,53.711
47.852,-65.918,13.184,29.297,14.648
39.062,14.16,20.02,25.391,-23.438
35.645,109.375,34.18,27.344,20.508
38.086,65.918,25.391,27.344,31.738
26.367,20.508,14.16,21.973,22.949
28.809,15.625,14.648,17.09,-8.301
37.109,89.844,28.809,23.438,27.344
32.227,57.129,32.715,28.32,22.949
22.949,0.488,24.414,23.926,-24.902
13.672,4.883,23.438,21.484,36.621
18.555,-38.574,12.207,11.23,32.227
25.879,31.25,18.555,11.23,20.02
20.02,113.77,24.902,15.137,56.641
29.785,61.035,5.859,26.367,2.93
30.273,21.973,12.207,30.762,-8.789
13.672,20.508,31.25,11.719,47.363
16.602,62.012,42.48,14.648,30.762
18.555,66.895,47.852,25.391,13.184
21.484,35.156,38.574,32.715,5.371
18.066,7.324,26.855,30.762,31.25
16.602,-75.195,19.043,23.926,8.301
30.762,-18.555,29.785,26.855,0
23.438,77.637,30.273,23.438,16.602
27.344,50.293,25.391,25.391,-7.812
30.273,25.391,31.738,28.32,-35.156
20.02,-14.16,22.949,22.461,-34.668
24.414,28.32,25.879,17.578,-39.062
30.762,73.242,33.691,21.484,0.488
22.949,44.434,27.344,24.414,42.48
13.184,2.441,21.973,20.508,0
27.832,-44.922,20.02,23.926,-28.32
39.062,16.602,28.809,24.902,52.734
31.738,48.828,31.738,31.738,122.559
33.691,-0.488,28.809,36.133,25.879
24.414,18.555,31.738,22.461,5.859
14.648,-13.672,22.949,14.16,43.945
30.273,-35.645,18.555,18.555,41.504
26.367,73.242,27.832,21.484,30.273
24.902,89.355,28.32,20.02,13.184
21.484,59.082,26.855,18.555,42.969
7.324,1.465,20.02,20.508,10.254
27.344,19.043,26.367,22.461,14.16
39.062,97.656,26.367,22.461,50.781
36.133,73.242,22.949,32.715,44.434
35.645,37.109,34.18,37.598,70.801
20.508,-19.531,15.137,18.555,43.945
27.344,1.953,8.301,24.902,-9.766
29.785,94.727,22.461,35.156,-14.16
16.113,83.008,25.391,27.832,-10.742
5.371,57.617,21.484,16.602,4.883
3.906,33.203,21.484,13.184,42.48
10.742,16.602,20.996,5.859,22.949
14.16,88.867,17.09,-0.977,30.273
18.555,115.234,19.531,13.672,81.543
13.672,69.336,15.137,17.578,80.078
4.883,29.297,9.277,8.789,12.695
16.602,-47.852,0.977,-0.977,-29.297
25.879,-8.789,10.742,-4.883,28.809
20.02,118.164,27.344,6.836,61.035
20.508,100.098,20.02,21.973,35.645
16.113,50.293,18.555,21.484,33.203
21.973,31.738,26.367,15.137,26.367
25.879,67.383,23.926,7.812,56.152
27.832,72.266,19.043,16.113,29.297
30.273,58.105,23.438,24.414,20.02
27.344,21.484,22.461,21.973,56.641
31.738,-11.23,26.367,20.508,20.508
32.715,50.781,25.879,16.602,11.719
30.273,52.734,19.531,23.926,41.016
30.273,30.273,18.066,25.879,22.461
23.438,65.918,25.391,19.531,43.945
26.855,-13.672,16.113,18.066,64.453
39.062,-20.996,11.23,18.555,53.223
36.133,97.168,31.738,22.461,48.828
38.574,72.754,33.691,28.809,3.906
34.668,39.551,34.18,27.344,-31.738
25.391,6.348,27.344,18.066,7.324
38.086,33.691,28.809,24.414,40.039
35.156,101.562,32.227,31.25,51.758
28.32,81.543,25.391,26.855,73.73
30.273,24.902,22.461,24.902,25.879
31.738,-43.457,16.113,20.996,-35.156
45.898,2.441,13.672,18.555,-55.664
41.504,109.375,22.461,29.297,1.953
23.438,80.566,24.414,28.809,26.855
26.367,49.805,10.254,23.926,-3.906
23.926,6.836,7.324,24.414,-5.371
23.926,-28.32,19.531,18.066,19.531
28.809,58.594,29.785,15.625,60.547
24.414,75.195,25.879,20.508,-7.324
13.672,57.617,25.391,16.602,-2.93
6.836,17.09,14.16,8.789,52.246
27.832,-23.926,26.855,19.043,41.504
31.738,36.133,32.715,17.09,31.25
20.02,40.039,3.418,15.137,-20.508
18.555,38.574,9.277,21.973,-5.859
10.742,48.828,21.973,10.742,72.754
18.555,-62.988,9.277,10.742,26.855
29.297,-10.254,8.789,14.648,-1.465
30.273,110.352,25.879,16.113,66.406
25.879,61.523,27.344,20.02,28.32
18.555,15.137,19.531,20.508,9.277
24.414,-9.766,20.02,18.066,-9.766
29.297,57.129,28.809,21.973,46.387
25.879,54.688,24.414,21.484,126.465
27.344,4.395,18.066,21.484,49.316
28.32,0.977,25.879,22.461,-67.383
24.902,-14.648,26.367,20.996,-37.109
24.414,24.902,26.367,20.508,17.09
26.855,61.523,28.809,17.578,15.137
22.461,48.828,22.949,17.578,-13.672
15.137,52.734,24.902,15.625,-6.348
15.137,-23.438,26.367,10.742,59.082
20.996,-34.668,21.484,3.418,20.02
20.02,85.938,31.738,13.672,-6.836
15.625,80.078,33.203,20.02,62.5
17.578,8.789,21.973,20.996,40.039
19.043,-66.895,16.602,15.625,-29.297
21.973,-30.273,25.879,9.766,35.645
22.461,81.543,40.527,19.043,41.992
21.973,83.496,41.992,20.02,60.059
17.578,48.828,35.645,20.508,75.684
15.625,-10.742,30.273,18.066,70.801
20.996,-18.066,28.809,11.23,69.336
24.902,69.824,33.691,18.066,117.188
26.855,60.059,39.062,24.414,117.676
22.461,18.066,37.109,17.09,33.203
8.301,-21.973,23.438,10.254,40.527
20.508,-37.109,19.043,18.555,47.363
36.133,25.391,29.297,27.832,22.461
35.156,55.176,36.133,28.809,4.883
30.273,43.457,33.691,29.297,-11.719
20.02,-2.93,22.949,23.926,-26.367
24.414,-63.477,14.16,11.23,24.902
34.18,24.414,20.508,15.137,47.363
26.855,90.332,24.414,19.043,13.184
16.113,46.387,20.996,17.578,-7.324
13.672,-6.348,10.742,19.531,-3.906
15.625,-17.09,8.789,12.695,26.367
30.762,48.34,20.996,15.625,1.465
26.855,38.574,20.02,21.484,-18.066
7.324,27.344,18.066,14.648,20.02
6.348,20.02,19.043,10.254,-2.93
12.207,-48.34,14.16,9.766,-16.113
17.09,7.812,18.555,5.371,-6.348
16.113,113.281,28.32,8.789,13.672
12.695,84.961,24.902,19.531,31.738
8.301,35.645,17.09,12.695,22.949
15.137,2.93,16.602,6.836,13.672
20.02,29.785,19.043,12.207,-26.855
17.09,73.242,18.555,15.625,2.93
16.113,52.246,20.508,19.531,74.707
12.695,-5.371,22.461,17.578,39.551
19.043,-68.848,9.766,11.23,71.289
32.715,-25.391,11.719,20.02,80.566
10.254,80.566,39.062,17.578,-2.441
-5.371,64.941,34.18,-9.277,-12.695
0.488,31.25,16.602,-12.695,12.207
0.977,-26.367,14.648,-4.883,3.906
11.23,4.395,22.461,5.859,18.066
14.648,52.246,29.785,14.16,-12.207
10.742,28.32,35.156,14.16,-29.785
7.812,37.109,34.18,13.672,39.062
5.371,-23.926,11.719,14.648,25.879
18.066,-46.875,15.625,15.137,-9.277
21.484,38.574,39.062,14.16,23.438
15.625,27.344,30.273,15.137,-10.254
9.277,7.812,20.508,17.578,-6.836
7.324,-14.16,23.926,13.672,14.16
19.043,-20.508,20.02,9.766,48.34
23.438,54.688,24.902,19.531,71.777
20.996,41.504,23.926,20.508,23.438
13.184,20.02,26.855,13.672,-24.414
10.254,-18.066,27.344,11.719,2.93
16.113,-65.43,11.23,7.324,47.363
22.461,25.391,23.926,12.207,62.012
21.973,32.715,27.832,23.926,47.852
18.066,7.324,25.391,20.02,-14.16
11.23,29.785,29.297,20.02,9.277
13.672,-56.152,11.23,12.695,66.895
25.879,-3.418,18.555,12.207,54.199
19.531,72.266,34.668,20.02,16.602
20.508,51.27,32.715,24.414,-13.184
24.414,31.738,24.414,24.414,0.977
18.066,-7.812,29.297,16.602,33.691
28.32,28.32,28.32,27.832,4.883
32.715,71.777,25.879,39.551,36.133
25.391,39.062,26.855,32.715,49.316
20.996,-10.742,11.23,26.855,12.207
29.785,-69.824,5.859,31.738,40.527
30.762,-21.973,29.297,30.762,26.367
25.391,101.562,40.039,33.203,72.754
22.949,67.871,22.461,28.809,90.82
13.184,9.277,16.602,23.438,-0.977
15.625,-30.762,21.484,20.996,-41.016
40.527,-12.207,23.926,19.043,-30.762
43.945,50.781,22.461,30.762,36.133
28.32,43.457,19.531,27.344,27.344
24.902,10.254,20.02,16.602,-39.062
22.461,-31.25,11.23,11.719,-17.578
32.715,-30.762,3.906,21.973,-0.977
32.227,29.297,22.949,30.762,30.273
20.02,49.316,26.855,22.949,69.824
19.043,47.363,18.555,20.996,32.227
14.16,-23.438,10.254,15.137,49.805
18.066,-57.129,8.301,10.254,72.754
22.949,54.199,29.785,16.113,36.621
21.484,78.613,26.855,23.926,52.246
21.484,39.551,20.996,23.438,61.035
15.625,-25.391,16.602,19.531,47.852
20.02,-20.996,19.531,25.391,72.266
32.227,59.57,27.832,35.645,66.406
37.109,18.555,26.367,36.621,-17.578
32.227,14.16,33.203,30.762,-42.969
24.902,16.602,23.438,26.367,17.09
28.32,-57.129,14.648,13.184,40.039
29.297,40.527,33.203,14.648,60.059
26.855,111.328,37.598,31.25,86.426
32.227,58.105,26.855,34.668,86.426
27.832,-10.742,21.484,33.203,13.672
25.391,-20.02,24.414,22.461,-7.812
35.156,55.176,28.32,21.484,12.695
33.691,75.195,34.668,25.879,19.043
23.438,48.828,25.391,18.066,19.531
13.672,-27.344,9.277,12.695,-15.137
15.137,-47.852,17.578,6.348,-9.766
26.367,43.457,27.832,7.812,-1.953
27.832,80.078,32.227,19.531,16.602
29.297,58.105,34.18,26.855,25.879
26.367,23.926,19.043,20.02,41.016
31.738,-22.949,13.672,15.625,68.359
43.457,36.133,23.926,22.461,87.402
46.387,82.031,28.809,26.855,97.168
41.016,36.133,16.113,19.531,24.902
28.809,17.578,16.113,18.066,-1.465
32.715,-47.852,11.23,19.531,49.805
40.039,-42.48,5.859,20.508,56.152
35.645,56.152,24.902,29.297,19.531
23.926,66.895,25.391,24.414,-13.672
21.973,41.016,20.996,22.461,4.883
19.531,-48.34,10.742,19.043,40.527
28.809,-62.012,5.371,21.973,48.34
41.016,40.527,32.227,32.227,29.297
34.18,12.695,31.738,34.18,8.301
25.879,-35.645,12.207,30.273,24.414
24.414,-113.281,7.324,18.555,-5.371
35.156,-85.449,9.277,14.648,30.273
37.598,-9.277,14.16,20.02,86.426
32.715,-79.59,10.254,22.949,5.859
33.691,-96.191,23.926,27.344,20.996
25.391,-122.07,18.555,22.949,81.055
19.043,-156.738,-7.324,9.766,60.547
34.18,-39.551,16.113,17.09,52.246
31.738,-29.785,23.438,20.02,49.805
18.066,-60.059,6.348,21.484,42.48
13.672,-81.543,7.324,25.391,28.809
22.461,-74.707,16.113,18.066,43.457
28.809,22.949,27.344,17.578,90.82
28.32,13.184,30.762,27.344,11.719
26.855,-0.488,27.344,31.738,-23.926
23.926,-48.828,43.457,25.391,62.5
26.367,-73.73,38.086,23.926,10.742
26.855,36.621,17.578,21.973,-7.812
27.344,68.848,24.414,22.949,39.062
35.156,42.969,38.086,42.969,42.48
21.484,20.02,34.18,36.133,35.645
6.836,-66.406,16.113,2.93,-6.348
16.602,7.324,27.832,5.859,76.66
24.414,109.375,38.574,16.602,125
27.344,99.609,41.992,22.949,71.289
13.184,62.988,28.32,16.113,16.602
3.906,21.973,13.184,7.324,-0.488
13.184,66.895,22.949,6.348,23.926
22.949,129.883,29.297,12.695,46.875
13.672,145.996,26.855,10.742,-24.414
3.906,138.672,25.879,1.465,-76.66
2.93,34.18,19.043,2.441,-74.219
9.766,48.828,19.531,2.441,-109.375
15.137,198.73,45.41,9.277,-70.801
16.113,188.965,39.062,12.695,-34.668
22.949,131.836,14.16,15.625,-74.219
13.672,94.238,15.137,8.301,7.812
10.742,109.375,14.16,4.883,46.875
21.973,172.852,14.648,16.602,22.461
25.391,166.016,19.043,23.926,34.668
20.02,168.457,22.461,17.578,37.109
14.648,141.602,14.648,6.836,59.57
20.508,150.391,18.555,6.348,65.918
31.738,250.488,26.367,11.23,84.961
23.438,240.234,18.555,16.113,61.523
18.066,229.004,24.902,19.531,10.254
24.414,157.715,17.578,16.602,21.973
21.973,161.621,9.766,11.719,58.594
24.902,270.02,20.996,15.137,60.547
31.25,273.438,30.273,25.879,70.312
25.391,237.305,25.879,31.25,28.809
16.602,155.762,12.207,30.762,6.836
21.973,88.867,11.23,21.973,78.613
30.762,192.871,20.508,16.602,83.984
23.438,293.457,29.785,21.484,39.551
23.926,253.906,30.762,26.367,14.648
23.438,185.059,19.043,22.461,44.922
22.949,130.859,18.066,20.508,51.27
34.18,184.082,29.297,28.32,11.23
37.598,201.66,30.762,28.809,40.039
28.809,161.133,27.832,24.902,37.598
25.391,119.629,31.738,22.949,-11.23
29.297,94.238,25.879,25.879,37.598
30.762,108.398,20.996,29.297,23.438
32.715,138.184,21.973,27.344,12.207
20.996,154.785,28.32,16.113,77.637
19.043,83.496,23.438,16.602,37.109
18.555,38.086,19.531,19.531,19.531
15.625,109.863,29.297,18.555,24.414
21.973,140.137,32.227,19.531,-2.441
28.32,125.488,32.715,23.926,-0.977
26.855,105.957,32.715,23.438,2.441
20.508,50.781,25.391,11.23,43.457
26.367,89.355,29.297,13.184,71.777
29.297,128.418,32.227,16.602,39.062
28.32,77.148,17.578,13.672,9.766
23.438,62.012,15.137,9.766,24.414
16.113,-4.395,8.301,6.836,9.766
20.508,26.855,13.184,8.301,7.324
25.879,117.676,30.762,14.16,11.719
21.973,57.129,23.926,14.16,-38.086
20.996,55.176,21.484,16.602,-15.137
19.531,1.953,17.578,18.555,-6.836
18.555,-74.219,14.16,6.348,1.953
30.273,70.801,37.109,14.16,4.883
28.809,116.211,41.992,29.297,-73.242
20.02,77.148,28.809,24.414,-53.223
15.625,-4.883,22.949,15.625,-3.906
19.043,-25.879,20.02,15.137,68.359
24.902,93.75,34.18,15.137,28.809
23.438,121.094,44.434,14.16,-5.859
16.113,105.469,42.969,13.672,28.32
16.602,35.645,37.109,19.043,17.578
12.695,10.742,36.621,16.113,10.254
18.555,99.121,36.133,11.23,16.602
24.414,96.191,33.203,16.113,19.043
13.184,89.355,36.621,12.695,92.773
13.672,63.477,32.715,10.742,92.285
18.066,4.395,20.02,10.742,-0.488
21.973,38.574,25.391,7.812,-20.508
21.484,50.781,36.621,10.742,54.688
17.578,-5.371,35.645,14.16,49.805
10.742,-98.145,36.621,13.184,21.973
9.766,-177.734,31.738,5.371,19.043
22.461,-105.957,33.691,5.371,28.32
18.066,-36.133,47.852,15.625,44.434
7.812,-40.039,33.203,10.254,35.156
8.789,-45.41,20.508,6.348,10.254
0.488,-122.559,19.043,0.977,-36.621
15.625,-85.449,23.926,8.301,-16.602
33.691,30.762,35.156,28.809,35.645
17.09,10.254,31.738,21.973,16.602
-4.883,12.695,31.25,6.836,19.043
-5.371,-64.941,24.902,-9.277,12.695
12.207,-68.848,20.996,-4.883,-22.949
14.16,75.195,43.945,13.184,-3.418
12.207,76.66,41.016,17.09,82.031
15.625,28.809,20.996,24.902,48.34
10.254,-17.09,20.02,11.719,33.203
18.066,-2.441,24.902,11.23,34.18
33.203,43.457,25.879,25.879,17.09
26.855,34.18,30.273,25.879,33.691
22.949,10.742,23.438,25.391,-16.602
31.25,-77.148,14.16,24.902,-4.883
32.227,-77.148,16.113,16.602,36.133
31.738,67.383,29.785,20.996,39.062
30.273,85.449,29.297,28.32,47.363
24.414,58.105,26.855,23.926,71.777
17.578,0.488,19.043,16.602,104.004
22.949,-16.602,18.066,15.625,20.996
30.273,55.176,31.25,20.02,-1.953
28.32,63.477,33.691,20.508,48.34
21.973,42.969,33.691,17.09,0
19.531,4.883,26.855,14.16,28.32
20.996,-1.465,18.066,17.578,76.66
35.156,39.551,28.809,23.438,48.34
29.785,55.176,26.855,24.414,80.078
17.578,87.891,21.973,24.414,103.516
25.391,46.875,18.555,22.461,76.172
22.949,-62.5,6.348,14.16,26.855
29.785,34.668,25.879,19.531,26.367
31.25,118.652,35.156,27.344,18.066
20.508,90.82,23.438,20.02,30.762
25.391,51.758,23.926,28.809,73.242
22.949,-10.742,18.555,24.902,-7.324
25.879,49.316,25.879,16.602,6.348
36.133,78.125,26.855,24.414,59.57
35.156,30.273,18.555,21.973,25.879
24.414,16.602,20.508,11.719,13.672
18.555,-37.598,5.859,9.277,65.43
24.414,6.836,11.719,9.766,92.285
33.203,104.004,31.25,19.043,21.484
33.691,72.266,28.32,24.414,6.836
20.996,28.809,14.648,15.625,27.344
19.531,-1.953,5.859,15.137,20.508
24.414,24.414,15.137,15.625,12.695
30.762,79.59,28.32,20.508,71.289
27.344,68.848,25.391,18.555,87.402
18.555,44.922,21.484,19.043,76.172
17.09,-77.637,13.672,12.207,17.09
18.066,-64.941,13.672,3.906,-46.875
15.137,90.332,28.809,10.742,10.742
14.648,73.242,33.203,15.137,23.438
8.789,41.016,27.832,15.625,5.859
6.836,-18.066,16.113,14.648,-32.715
14.648,-11.23,16.113,9.277,-63.477
23.438,82.52,26.367,13.672,25.391
19.043,63.477,30.762,20.02,67.383
14.16,17.09,27.344,18.555,18.555
13.184,2.93,19.531,19.043,7.812
15.137,-0.488,21.484,14.16,-3.418
20.02,35.645,30.273,14.648,12.695
13.672,43.457,26.855,13.672,49.805
16.602,63.477,31.738,14.16,35.156
19.043,0.488,20.996,15.137,-49.805
15.137,-71.777,11.23,6.836,-79.102
21.484,69.336,33.203,14.16,-6.836
29.785,129.883,41.992,25.391,44.922
29.297,85.938,32.227,25.879,4.883
18.066,46.387,22.461,18.555,35.156
15.625,17.578,26.367,9.766,67.383
29.297,58.594,40.039,20.996,25.391
35.645,64.941,36.621,32.227,24.902
28.32,39.062,37.598,26.367,1.465
20.508,16.602,27.344,14.16,-10.742
18.066,-47.852,19.043,8.789,-45.898
21.973,38.086,41.016,15.137,-30.273
16.602,138.184,43.945,14.16,43.457
8.789,97.168,34.668,14.16,41.504
2.441,59.57,36.133,16.602,4.395
-1.953,28.32,25.391,2.93,59.082
2.441,56.152,20.508,-4.395,98.145
-0.488,78.125,28.32,0,25.391
-1.953,73.242,31.738,1.465,5.859
6.348,47.852,24.902,1.465,9.277
-1.953,-8.301,11.23,-5.371,19.531
-3.418,4.395,12.695,-15.137,58.594
9.277,67.383,24.414,-3.906,51.758
4.883,89.355,26.855,-1.465,17.09
0,85.938,24.414,-2.441,11.719
3.906,-17.578,9.277,-6.348,8.301
14.648,-24.902,10.254,-6.836,-10.254
34.18,104.98,31.738,26.367,25.879
36.133,107.91,28.809,26.855,76.66
4.883,70.801,20.996,-4.395,79.59
-7.812,13.184,22.461,-13.184,31.738
6.836,25.391,28.32,-5.371,35.156
11.23,59.082,21.484,4.395,40.039
1.465,49.316,16.602,-8.301,-7.812
-9.277,92.773,30.273,-17.09,20.996
-4.883,22.461,25.391,-6.836,48.828
3.906,-30.273,23.438,-3.906,27.832
12.207,106.445,38.574,-5.859,52.246
16.113,128.418,42.48,3.418,65.918
19.043,76.66,39.551,10.742,1.953
14.648,17.09,29.297,2.93,-26.367
12.207,1.465,24.414,-5.859,-29.785
20.996,84.473,36.621,-4.883,22.461
20.508,105.469,29.785,-1.465,119.141
22.461,52.246,25.879,8.301,68.359
22.949,15.625,31.738,10.254,69.336
17.578,-30.762,13.672,4.395,98.633
21.484,36.621,18.555,4.883,43.457
22.949,104.004,29.297,9.766,15.137
15.625,96.191,25.879,9.766,71.777
13.184,34.668,11.719,8.301,105.469
8.789,-8.789,9.277,4.395,51.27
20.996,53.223,24.414,7.324,41.016
29.785,78.125,27.344,13.184,44.434
17.578,65.43,21.484,8.789,41.504
22.949,37.598,16.602,12.695,42.969
23.926,-28.809,15.625,15.137,26.367
32.715,-1.465,23.438,16.602,24.414
37.109,74.707,28.809,20.996,5.371
26.367,76.172,28.32,20.02,18.555
25.391,43.457,23.438,19.043,35.156
25.879,-5.859,18.066,15.625,9.277
28.809,21.973,20.508,15.137,25.879
38.574,65.918,27.832,20.508,4.395
36.621,58.105,36.621,22.461,36.621
23.438,11.719,25.879,15.625,13.184
19.531,-10.742,18.555,13.184,-6.348
27.832,23.438,26.855,19.043,26.855
39.062,36.133,25.391,28.32,6.348
31.25,33.203,22.461,24.902,30.762
23.926,48.34,21.973,19.043,43.945
26.855,-19.043,14.16,16.602,36.133
27.344,-75.684,5.859,4.883,8.301
33.203,59.082,19.531,8.789,23.438
29.297,121.094,29.785,24.414,54.199
20.996,76.66,33.203,24.414,8.789
16.602,17.09,27.344,22.461,-14.16
21.973,-3.906,19.531,17.09,-25.879
31.738,47.852,29.297,19.531,-57.617
28.809,42.48,31.25,24.414,-36.621
23.926,25.879,24.902,25.391,28.32
25.391,-10.254,15.625,29.297,54.688
20.02,-7.324,19.531,19.531,45.41
24.414,68.359,35.156,22.949,30.273
31.738,63.965,33.203,31.738,-6.836
25.391,57.617,30.273,23.438,-33.691
19.043,13.184,29.297,18.555,-9.766
9.277,-41.016,27.832,17.09,7.812
10.254,50.293,35.156,16.602,16.602
17.578,85.449,35.156,24.414,-1.953
13.184,59.082,38.574,31.25,-29.297
10.254,23.926,33.691,24.414,17.09
12.695,-15.137,33.691,18.555,62.988
20.996,-1.953,32.227,18.555,25.391
23.438,52.734,28.32,24.902,53.223
17.09,82.031,28.32,24.902,27.344
14.16,51.27,21.973,20.02,-31.25
16.113,-41.504,20.996,15.625,38.574
13.672,-0.488,28.32,9.277,79.102
28.32,102.051,36.621,21.484,86.426
44.434,68.848,33.203,37.598,48.828
15.137,37.598,41.016,23.926,35.156
-0.488,9.277,39.551,12.207,73.242
21.484,20.996,40.527,26.855,105.469
35.156,21.973,32.227,33.691,51.758
20.996,32.715,20.996,20.996,25.879
14.648,44.922,29.297,20.02,10.742
21.484,-1.953,28.809,24.902,17.09
20.996,-5.859,27.344,21.973,48.34
26.855,65.918,40.527,27.832,52.734
35.645,94.238,42.48,29.785,91.797
32.227,58.594,32.715,27.344,41.504
20.996,-9.766,22.949,20.02,21.973
25.879,-13.672,25.391,16.113,32.227
36.133,54.688,34.668,19.531,63.965
29.297,40.039,26.855,20.996,66.406
24.414,2.441,19.531,17.578,0.488
20.996,-49.805,15.625,10.742,9.766
21.973,-113.77,11.719,4.395,-3.418
27.344,20.508,26.367,6.836,26.855
32.227,115.234,39.062,15.137,75.195
32.715,72.266,29.297,17.09,36.133
24.414,-10.742,19.043,18.555,-26.855
15.625,-52.734,16.113,9.277,-54.688
23.926,27.344,27.832,10.254,-55.664
28.809,74.707,41.016,18.066,13.184
28.32,72.266,36.621,17.09,85.449
22.949,4.395,27.344,15.137,62.988
13.184,-58.105,29.297,13.672,16.602
21.484,1.465,36.621,11.719,5.371
10.742,58.105,28.32,9.277,17.578
10.254,47.363,21.484,8.301,-14.16
16.113,3.418,27.344,16.602,-44.434
10.742,-64.941,20.02,7.812,2.93
23.438,17.578,33.203,8.789,44.434
30.762,90.82,40.527,20.02,29.785
18.066,53.223,24.902,15.137,-21.484
17.578,7.812,31.25,20.996,-25.879
13.184,-2.441,28.32,20.02,22.461
10.742,46.387,20.996,10.742,92.773
23.926,37.109,20.02,12.695,110.352
21.484,19.043,20.508,19.043,50.781
20.02,28.809,24.414,16.113,-14.648
18.066,-2.441,24.414,10.742,-3.906
18.555,12.695,20.508,11.23,-17.578
20.02,72.266,23.926,18.066,36.621
13.672,54.199,20.996,15.137,37.109
15.625,38.574,13.672,10.254,-0.977
17.578,-40.527,14.16,13.184,63.477
18.066,-48.34,23.926,9.766,80.078
27.344,40.527,28.809,15.137,-29.297
22.949,32.227,26.367,14.648,13.672
16.113,12.207,25.879,12.695,85.449
14.16,-68.848,10.254,10.254,-5.371
11.719,-64.941,14.648,1.465,-1.953
21.973,66.895,30.762,8.789,37.109
26.855,68.848,18.555,22.461,25.391
15.137,35.156,11.719,20.02,5.371
5.371,-9.766,17.09,10.742,-2.441
11.23,-12.695,23.438,16.602,31.25
21.484,33.203,24.902,23.438,41.504
27.344,36.133,25.391,15.625,-6.348
21.484,45.898,29.785,12.207,21.973
17.578,-1.953,24.414,18.066,30.762
18.555,-51.27,21.484,17.578,13.184
24.902,4.395,27.344,13.184,71.289
23.926,20.996,26.855,14.648,52.734
17.09,41.992,27.344,13.672,50.781
16.113,8.789,20.508,12.207,76.66
13.184,-51.27,9.277,6.836,1.953
18.066,25.391,22.461,8.789,2.441
25.391,62.5,34.18,19.531,71.289
23.438,56.641,30.762,23.438,39.062
21.973,8.789,21.973,20.996,51.758
15.625,-73.242,16.113,5.371,13.184
15.625,16.602,28.32,-2.441,34.18
23.438,56.152,31.738,11.719,97.168
19.531,37.598,30.762,22.461,63.965
14.16,48.34,31.738,20.508,56.152
15.625,-44.922,27.832,7.324,26.855
20.996,-34.18,28.32,3.906,-2.93
25.391,62.012,29.785,14.16,-29.785
30.273,88.867,31.738,20.996,0.977
28.809,42.48,24.902,16.602,-29.297
19.043,-2.441,23.438,10.742,-15.137
21.484,18.066,26.855,8.789,20.02
27.344,60.059,29.297,15.625,18.555
18.555,56.152,27.344,16.602,24.902
18.066,14.16,23.438,13.184,13.184
23.926,-60.059,18.066,14.16,-7.812
25.391,-30.273,17.578,11.23,-15.625
29.297,93.262,38.086,14.648,28.32
19.531,99.121,39.551,14.648,62.988
14.648,65.918,22.461,12.207,68.848
11.719,15.625,24.902,11.719,77.148
14.16,-13.184,26.367,8.789,44.434
24.902,48.828,30.273,17.09,19.043
23.438,73.73,33.691,20.996,25.879
17.09,43.945,26.855,15.625,3.418
13.672,16.602,25.391,9.766,18.555
13.672,-24.414,24.414,8.301,11.23
20.02,16.113,31.738,8.789,21.973
28.32,81.543,36.133,12.207,63.477
22.949,61.523,29.785,16.602,6.836
20.996,-22.949,19.043,18.066,-58.594
23.438,-37.109,15.625,16.113,-64.941
33.691,45.41,28.32,18.555,35.156
43.945,64.941,30.762,26.367,44.434
37.109,56.152,31.738,18.066,41.504
33.203,0.977,28.32,12.695,116.699
31.738,-38.574,28.809,14.648,102.051
28.32,43.945,47.852,14.16,68.848
35.645,37.109,40.527,16.113,21.973
33.203,38.574,39.551,25.391,7.812
19.531,27.344,45.41,22.949,35.645
14.648,-55.664,35.156,13.672,24.902
22.461,17.09,41.016,19.043,4.883
30.762,85.449,40.527,28.32,-30.762
21.484,87.402,40.039,30.762,17.578
17.578,49.805,35.156,28.32,63.477
18.555,0.977,28.809,26.367,47.363
22.461,31.738,41.016,29.297,64.453
22.461,61.523,41.504,29.297,48.828
23.926,55.176,35.645,29.297,-17.09
27.832,14.16,36.621,24.902,-1.953
20.508,-15.625,32.715,17.578,28.32
18.555,22.461,40.039,16.602,10.742
20.996,61.523,51.27,20.996,38.086
19.531,55.664,50.781,21.484,46.387
23.438,30.273,47.852,22.949,38.086
28.809,-6.836,38.086,38.086,21.484
29.785,-1.953,38.086,32.715,-2.441
23.438,41.992,52.734,17.09,-16.113
11.719,37.598,43.945,7.324,-21.973
2.441,26.855,35.645,1.465,2.441
-1.465,-7.324,42.969,9.766,29.785
-7.812,-32.715,41.992,3.906,28.809
-14.648,19.531,37.598,-8.301,38.086
-6.348,50.781,37.109,1.465,42.48
-2.441,72.266,45.898,16.113,70.801
-7.812,-2.93,37.109,3.906,114.746
-11.719,-83.008,24.414,-9.277,66.895
7.324,33.203,42.48,7.324,5.371
21.484,82.031,42.969,19.531,8.301
20.508,42.48,43.945,23.438,-33.691
23.438,-3.418,36.133,20.996,-28.32
22.949,-14.16,17.09,13.672,21.484
33.691,32.227,27.832,21.973,62.988
40.527,8.789,27.344,27.832,11.719
33.203,27.832,24.414,22.949,37.109
36.621,-0.977,18.066,26.855,30.273
34.18,-82.52,16.113,20.508,-20.508
25.391,20.02,32.227,15.625,38.574
32.227,74.707,32.227,33.203,41.504
30.762,77.148,29.785,31.738,31.738
30.762,38.574,30.762,32.715,15.137
32.715,1.953,29.297,32.227,22.949
38.086,37.109,21.484,27.344,43.457
41.504,63.477,28.32,35.156,36.133
42.48,56.641,30.762,35.156,-7.812
38.086,-2.93,19.531,35.645,-1.953
31.25,-16.113,20.02,30.273,62.5
32.715,20.02,24.902,23.438,47.363
42.969,53.223,32.227,33.203,45.41
44.922,68.359,34.668,36.133,49.316
35.156,44.922,22.461,35.156,62.5
33.203,-56.152,1.465,25.391,36.133
30.762,-51.27,2.441,19.043,-5.859
37.109,42.48,28.32,28.809,-22.949
38.086,62.5,26.855,25.879,-20.996
26.855,44.922,9.766,16.602,7.812
25.391,7.812,13.184,22.461,35.156
33.691,-12.207,23.438,24.902,56.152
40.527,14.648,23.438,24.414,-14.648
34.18,70.312,26.367,20.02,9.277
33.691,77.637,32.227,21.973,75.684
28.809,-37.598,16.602,18.066,49.316
24.414,-54.688,10.742,13.672,38.086
36.621,69.824,34.18,32.715,44.922
37.109,84.473,38.086,32.227,93.262
29.785,59.082,28.32,25.391,75.684
34.668,13.672,20.02,28.32,47.852
28.809,-12.207,13.184,27.832,31.25
24.414,43.457,27.832,24.902,29.297
24.902,52.734,39.551,24.902,82.52
20.996,30.273,34.18,26.855,26.855
20.02,-26.367,23.926,18.555,-31.25
17.578,-60.547,14.648,6.836,-20.996
23.438,30.273,23.926,17.09,-31.25
41.016,82.52,30.273,34.668,14.648
38.574,78.125,23.926,37.598,86.914
24.414,9.277,12.207,25.391,48.828
17.09,-23.926,9.766,15.137,1.953
20.508,5.371,18.066,18.555,1.465
30.273,26.367,22.461,26.855,-35.156
28.32,34.668,20.508,27.832,-54.688
21.484,-25.879,11.719,27.832,-11.23
17.578,-91.309,8.789,20.996,29.785
18.066,-1.465,19.531,14.16,38.086
26.855,71.289,28.809,25.879,34.18
25.391,64.941,27.832,22.949,38.574
22.461,20.508,19.531,13.672,36.621
15.137,-21.484,16.113,18.066,36.133
22.461,-2.441,19.531,17.09,1.953
25.391,31.25,23.926,20.02,-7.324
20.02,61.523,28.809,20.508,98.633
28.32,22.461,20.02,20.02,98.633
29.785,-34.18,18.066,24.902,4.395
30.273,-35.645,30.273,19.043,2.93
33.691,20.02,36.133,20.996,-1.465
32.227,55.176,37.598,29.297,17.578
31.738,32.227,38.574,34.18,19.531
27.832,-46.875,29.785,23.438,1.465
20.996,-36.621,32.715,13.672,14.648
29.297,63.477,41.992,17.578,-17.578
36.621,77.148,43.945,23.926,-12.207
35.156,51.27,44.922,30.273,17.578
22.461,10.254,35.156,17.578,21.973
21.973,2.441,37.109,10.742,7.812
36.621,31.25,36.133,17.578,20.508
28.809,17.09,28.809,15.625,67.383
20.02,7.812,28.32,18.555,45.41
21.973,9.766,32.227,19.043,34.18
14.16,9.277,29.297,9.277,90.82
15.137,33.691,30.273,8.301,74.219
16.113,25.391,34.18,11.719,12.695
21.484,41.992,38.574,19.043,-7.812
20.02,-20.02,27.832,18.066,5.859
13.184,-66.895,20.508,6.348,-9.277
21.484,32.715,38.574,7.324,-7.812
25.879,64.453,40.527,9.277,14.648
17.578,55.176,34.668,9.277,2.93
14.16,-29.785,25.879,11.719,0.977
12.207,-62.988,26.367,4.395,14.648
9.766,42.969,37.598,4.883,49.805
15.137,73.73,40.039,7.812,18.066
16.113,58.105,40.527,9.277,-21.973
8.301,17.09,32.227,3.418,7.324
7.324,-0.977,33.203,8.301,21.973
9.766,7.324,36.133,18.555,4.883
18.555,21.973,33.691,21.484,6.836
22.461,57.617,41.504,20.996,8.301
18.555,27.344,34.18,19.043,15.625
14.16,7.812,38.086,16.113,95.215
18.066,-5.859,37.109,16.113,93.75
19.531,4.883,22.461,14.648,-8.301
16.602,64.453,26.855,11.23,-38.086
19.043,39.551,26.367,18.066,2.441
13.672,-65.918,21.484,11.719,-4.883
12.695,-19.043,24.414,2.441,-5.859
12.695,68.359,26.367,4.395,-11.719
19.043,66.895,23.438,12.695,-25.391
24.414,55.664,27.832,15.625,48.828
13.184,15.625,29.297,11.719,68.359
10.254,-1.465,21.484,6.836,40.527
25.879,32.227,22.461,14.16,53.223
32.227,39.551,29.785,15.137,39.551
25.879,42.48,32.715,14.16,33.691
27.344,0,27.344,11.719,104.492
20.996,-18.555,24.902,2.93,96.68
32.227,74.219,40.039,15.137,72.266
39.062,72.754,40.527,24.414,13.184
25.879,42.969,35.645,20.02,-58.105
23.926,26.855,36.133,15.625,20.508
16.602,30.273,40.039,16.113,124.023
16.602,35.645,37.109,15.625,72.754
24.902,49.805,35.156,18.066,-27.832
22.949,59.57,41.504,24.414,-16.602
17.09,-19.043,33.691,21.484,-39.551
13.672,-34.18,36.133,14.648,2.93
20.508,35.645,46.875,15.137,52.246
28.809,76.172,47.852,18.555,27.344
21.484,89.844,51.27,23.926,30.273
20.996,-3.418,45.898,18.066,10.254
20.996,-41.016,36.621,14.16,-39.551
20.996,46.875,52.734,17.09,5.859
34.18,78.125,58.105,20.02,62.5
29.297,74.219,48.34,19.043,60.059
26.367,27.344,46.875,23.926,62.012
25.391,-10.742,37.109,24.414,29.785
18.066,-21.973,33.203,20.508,-9.766
31.25,18.066,45.898,24.414,-2.93
37.598,67.383,47.852,26.367,-6.836
29.297,15.625,42.48,29.297,-1.953
19.531,-8.301,50.293,28.809,-3.906
9.277,32.227,51.27,18.555,2.441
18.555,50.293,49.805,23.926,32.715
22.461,70.801,52.246,27.832,61.035
24.902,26.367,41.504,20.02,29.785
15.625,-22.949,42.48,19.531,-7.324
3.418,28.32,49.805,16.113,53.223
19.043,56.152,49.805,20.02,82.52
22.461,22.949,43.945,28.809,4.883
22.461,23.438,42.48,26.855,11.23
23.926,-29.297,40.527,14.648,101.074
17.09,-38.574,40.039,2.93,82.52
24.414,77.637,47.363,4.883,30.273
28.32,87.402,47.852,17.578,23.926
22.949,42.969,43.945,18.066,22.461
18.555,26.367,34.668,16.602,17.578
15.625,28.32,30.273,22.461,40.527
23.926,40.039,30.762,11.23,38.086
29.297,59.082,28.32,15.137,3.418
26.855,59.082,30.273,29.785,71.777
24.414,-10.742,28.809,29.297,68.359
12.207,-27.344,28.32,8.789,-10.254
16.113,34.18,37.598,-3.418,-10.742
29.297,52.246,36.621,14.16,-14.16
26.367,59.082,35.645,24.414,5.859
24.902,-18.066,30.273,22.949,31.25
19.531,-40.527,31.738,18.555,46.387
22.461,36.133,34.668,19.531,56.641
35.156,41.504,36.133,30.273,-13.672
36.133,63.965,41.016,33.691,21.484
33.691,22.461,29.785,31.25,34.18
28.809,-0.488,30.762,22.949,51.758
35.156,18.555,38.574,18.066,111.328
47.363,46.875,43.945,31.738,126.953
41.504,100.098,43.945,35.156,145.508
35.645,34.18,34.668,33.691,115.234
19.043,-59.082,24.902,20.996,5.371
17.578,16.602,41.992,10.254,-45.41
26.367,74.707,55.176,18.066,-24.902
23.438,82.031,48.34,27.344,-0.977
17.578,31.25,40.527,22.461,-15.137
20.508,3.418,36.621,19.531,-16.602
22.949,12.695,37.598,27.344,21.484
21.973,26.367,37.109,24.414,19.043
24.902,48.34,36.133,18.066,3.418
26.855,5.859,33.203,21.484,-31.738
13.672,-43.457,34.18,7.812,-27.832
6.348,17.09,42.969,2.441,26.855
21.973,76.172,44.434,20.508,4.883
20.02,75.195,44.922,21.484,-22.461
15.625,53.223,44.434,18.066,8.789
10.254,13.184,36.621,15.625,29.297
2.93,18.555,31.738,10.742,28.809
17.578,51.758,34.668,14.16,52.246
18.555,74.707,38.574,17.09,21.484
19.043,66.406,31.25,17.578,11.719
18.066,23.926,27.344,13.184,41.504
8.301,-1.465,31.25,8.301,50.293
21.973,29.297,36.133,19.531,21.973
30.762,88.379,44.434,30.273,16.602
27.832,87.891,41.504,27.344,63.965
26.855,27.832,32.227,16.602,48.828
19.043,19.531,32.715,8.789,36.133
20.996,44.434,36.133,15.625,23.438
31.25,56.641,38.574,20.996,-7.324
28.809,60.059,41.504,20.508,6.348
22.461,-7.812,33.691,20.02,7.812
17.09,-22.461,29.785,18.066,13.184
22.461,18.066,33.203,16.602,17.578
27.832,48.828,36.133,18.066,28.809
24.414,90.332,43.945,20.996,8.301
32.227,5.859,37.109,20.02,0.488
24.902,-41.992,31.738,16.602,12.695
20.996,44.922,43.945,10.254,-1.465
32.227,70.801,44.434,11.719,5.859
32.227,63.965,41.992,19.531,-7.812
27.832,32.715,40.039,14.648,28.809
13.184,5.859,31.738,11.23,32.227
20.996,15.137,31.25,17.09,13.184
37.598,20.508,40.039,21.484,-54.199
37.109,34.668,35.156,26.367,-13.184
29.297,-4.883,18.066,20.02,32.227
19.531,-47.363,23.438,18.555,-9.766
19.531,33.691,36.621,20.508,74.219
29.297,73.73,32.715,20.02,90.82
32.715,53.223,32.227,22.949,19.043
29.785,11.719,26.855,21.484,13.672
19.531,-2.441,24.414,16.113,14.16
19.043,9.277,26.367,11.719,-0.977
35.645,26.367,31.738,20.02,9.766
29.785,61.523,39.551,24.414,55.176
23.926,29.297,27.344,27.344,-1.953
28.809,-24.902,20.508,25.879,-31.25
25.391,-21.973,30.762,25.879,30.762
27.344,8.789,32.227,25.879,33.203
28.809,44.434,29.297,18.555,1.953
27.344,45.41,35.645,25.391,-12.207
24.902,-35.645,30.762,31.25,41.992
17.09,-30.273,29.297,26.855,83.984
24.414,49.316,37.598,30.762,62.5
35.156,41.016,36.621,33.203,42.969
35.156,28.809,29.785,35.156,37.598
21.973,14.16,20.508,23.438,47.363
12.695,-15.137,15.625,14.16,-0.977
22.461,-30.762,14.648,19.531,-28.32
21.484,7.324,19.531,18.555,31.25
23.438,55.176,26.367,19.531,5.859
28.32,-18.555,29.785,21.973,3.418
24.414,-55.664,32.227,17.09,-2.441
22.461,31.738,41.016,16.602,-66.895
27.832,81.543,37.598,26.855,12.207
27.832,74.707,30.762,30.762,20.508
22.949,33.691,24.414,25.391,-25.879
14.16,23.438,27.832,22.461,19.043
14.648,19.531,26.855,16.602,18.555
34.668,32.715,21.973,21.484,13.184
34.18,35.156,29.785,31.738,14.648
21.484,1.953,26.855,26.367,18.555
18.555,9.766,28.32,16.113,52.734
15.137,20.02,29.785,7.324,23.438
20.996,37.598,28.809,9.766,9.766
25.879,72.754,34.18,19.531,59.082
30.273,8.301,28.809,24.902,21.973
32.715,-27.344,36.621,36.621,12.207
48.34,4.395,42.969,49.316,32.715
42.48,17.578,37.598,37.109,-4.883
21.973,50.781,37.109,20.508,-17.09
30.762,26.367,26.855,17.578,2.441
24.902,-69.824,13.672,2.93,17.09
17.578,-39.062,15.625,-4.883,12.207
36.621,81.055,22.949,2.93,79.59
36.621,120.605,24.414,0.488,77.637
29.297,78.125,16.113,-1.953,54.688
32.715,27.344,6.836,-2.441,53.711
35.156,34.18,8.789,-4.883,0.977
35.645,62.988,15.625,-6.348,21.973
39.551,96.191,15.137,-3.906,33.691
37.598,83.008,15.625,-1.953,20.02
38.086,65.918,18.555,-7.324,65.43
31.738,59.082,2.441,-16.602,41.992
31.25,47.852,-9.277,-20.508,16.113
38.574,101.074,1.465,-14.648,35.645
37.109,133.301,9.766,-9.277,7.324
43.945,28.809,-0.488,-1.953,-35.156
29.785,4.395,-0.977,-14.648,-50.293
26.855,122.559,11.23,-20.508,26.367
47.852,164.062,14.648,-6.836,88.379
51.758,143.066,17.09,2.441,76.172
51.27,89.844,7.324,5.371,37.598
47.852,70.801,1.953,1.465,11.719
41.504,81.543,6.348,2.441,5.859
47.852,112.793,13.184,13.672,41.016
54.688,87.891,9.277,16.113,62.988
50.781,49.805,9.766,10.254,28.32
46.387,67.383,13.184,12.695,35.645
48.34,74.219,12.207,19.043,56.152
55.176,83.984,15.625,17.09,36.621
48.828,113.281,21.973,21.973,39.551
50.293,47.363,17.09,30.762,88.379
49.805,-20.02,13.672,22.461,9.277
42.969,49.805,21.484,20.508,-5.859
48.828,83.496,20.508,32.715,16.602
55.176,99.121,15.625,31.25,31.738
50.293,57.617,15.625,29.297,31.738
47.852,8.789,16.602,38.086,-8.301
50.293,15.625,15.137,30.762,-3.906
49.316,71.289,24.414,21.973,47.363
53.711,122.559,32.715,30.762,83.496
50.781,57.129,26.367,39.551,40.527
43.945,-22.949,15.625,28.809,-2.93
45.41,35.156,26.367,22.949,-7.324
50.293,96.68,27.344,30.273,56.152
50.293,101.562,19.043,33.691,96.68
46.875,49.805,16.113,30.762,49.316
40.039,42.969,19.043,30.273,49.316
30.762,50.293,21.973,32.715,37.109
36.133,15.137,19.531,25.391,23.438
47.363,59.082,31.25,33.691,25.391
37.109,78.613,31.738,38.574,32.715
21.973,34.668,22.949,25.879,55.176
20.996,40.527,28.809,22.461,57.617
28.32,63.965,31.25,23.926,81.055
30.273,86.426,32.715,20.02,117.188
29.785,68.359,31.738,22.461,63.965
40.039,-9.277,27.344,34.668,33.691
36.621,-1.465,18.066,18.066,47.852
24.414,55.664,18.066,0,22.949
33.691,57.129,26.367,10.742,22.461
40.527,57.617,22.949,23.926,40.527
41.504,3.906,12.207,26.855,71.289
43.457,-18.066,7.812,22.949,18.066
49.316,47.363,18.555,25.391,-3.418
53.223,62.5,19.531,25.391,-28.32
50.781,68.848,21.484,33.203,-45.41
42.48,50.293,22.949,35.156,35.645
33.203,17.09,12.695,13.672,4.395
42.48,15.137,19.043,14.16,-36.621
53.711,50.293,28.32,31.738,4.395
50.293,53.711,23.438,34.18,-39.062
40.527,20.996,23.438,30.762,-30.762
33.691,-6.836,22.949,25.391,39.062
32.227,-27.344,22.949,24.902,48.34
38.086,3.418,24.414,30.273,24.902
40.527,62.988,23.926,35.156,16.113
39.551,0.488,24.414,38.086,42.48
29.785,-69.336,16.602,28.809,20.996
26.367,4.395,34.18,22.461,23.438
35.645,47.852,48.828,24.902,52.246
35.156,54.688,41.504,27.344,41.504
23.926,15.625,27.832,25.879,27.832
18.066,-15.137,19.043,19.043,13.672
19.531,-18.555,21.484,16.113,-11.719
34.668,-24.414,28.32,27.344,-5.371
35.645,24.414,39.551,28.32,35.645
28.809,28.809,36.133,23.926,69.336
40.039,-40.527,31.25,28.809,45.898
37.109,-31.738,30.273,21.973,23.926
35.156,17.09,22.461,17.578,25.879
39.062,58.105,31.738,18.066,-3.418
38.574,44.922,24.414,20.508,9.766
41.016,7.324,7.324,23.926,55.664
38.086,-8.301,13.184,14.648,8.301
35.645,10.254,27.832,16.602,19.531
41.016,43.945,32.227,27.344,66.895
46.387,10.254,22.461,24.414,19.043
41.992,-53.223,24.414,16.602,44.922
30.273,-23.926,31.738,11.719,66.406
20.996,36.133,30.762,14.648,9.766
29.785,54.199,32.715,20.508,9.277
32.715,67.383,32.227,23.438,32.227
27.344,22.461,25.391,22.949,44.434
23.926,1.953,27.344,15.625,50.781
23.926,25.391,23.926,16.113,14.648
37.598,61.035,27.832,24.414,61.035
34.668,53.711,34.18,22.461,95.215
31.738,0,19.043,15.137,19.531
28.32,-37.598,12.695,10.254,-24.902
20.02,-22.949,18.066,6.836,-8.301
35.156,33.691,28.809,12.695,11.23
33.203,51.27,34.668,17.578,-32.715
27.832,14.648,26.855,14.648,-5.371
34.18,5.371,24.414,21.484,57.617
32.715,8.301,28.809,24.414,39.062
36.621,16.602,32.227,28.32,18.555
38.574,45.898,39.062,35.645,-20.508
37.109,-18.066,24.902,35.156,-45.898
24.902,-35.645,20.996,26.855,17.09
21.973,16.602,28.32,19.043,13.672
33.691,-0.977,22.461,18.066,-22.949
39.062,59.57,35.156,24.414,58.105
41.504,46.387,37.109,29.297,77.637
33.203,-38.086,23.926,21.973,11.23
24.414,13.672,22.949,17.578,3.906
34.668,62.988,30.273,16.113,48.828
31.738,74.219,36.621,15.137,46.387
29.297,46.387,30.273,24.902,34.668
28.32,0,17.09,25.391,0.977
20.996,6.348,15.625,17.578,-12.207
21.973,25.391,18.066,17.578,21.973
29.297,38.086,17.09,22.949,33.203
33.203,19.043,21.973,32.715,94.727
36.133,-49.316,15.625,41.504,61.035
24.414,-22.461,16.113,32.227,-7.324
10.742,35.156,19.531,9.766,1.465
21.484,51.758,29.297,8.301,-8.301
28.809,55.664,24.414,19.043,27.344
21.973,19.043,9.766,15.137,51.758
20.508,11.719,12.695,17.578,25.879
25.879,15.625,2.441,17.578,22.461
30.273,50.293,8.789,11.719,73.242
28.32,60.059,19.043,13.672,95.703
24.902,13.184,13.672,16.113,37.598
20.508,-19.531,10.254,11.23,40.039
20.508,-8.301,11.23,10.254,40.527
30.762,38.086,25.391,24.414,2.441
34.18,76.172,30.762,26.855,-33.203
30.273,3.418,12.207,13.672,-28.32
27.344,-30.273,14.16,11.719,-20.996
23.438,42.48,23.438,9.277,-16.602
31.25,73.73,20.02,13.672,42.48
34.668,79.59,24.414,26.367,60.547
32.227,38.086,15.625,18.555,20.02
25.879,31.738,18.066,18.555,22.461
21.484,19.531,23.438,26.855,39.062
30.762,-6.836,21.484,21.973,39.551
34.18,47.852,26.367,20.02,81.055
33.203,9.766,19.043,29.297,47.363
30.273,-37.109,12.695,23.926,-1.953
25.879,8.789,13.672,18.555,27.832
30.273,21.484,12.207,25.879,1.465
34.18,72.266,21.973,31.25,5.859
26.855,41.016,20.508,35.645,15.137
22.461,3.906,20.508,36.621,-12.695
19.043,9.766,16.113,23.438,37.109
25.391,13.672,12.207,21.973,64.941
32.227,35.645,14.648,34.668,13.672
28.809,1.953,17.578,32.715,27.832
21.484,-50.293,19.531,20.508,24.902
10.742,0.977,23.438,11.719,28.32
13.672,40.039,28.809,12.207,64.941
25.879,49.805,29.785,20.996,24.414
23.926,20.508,19.531,27.832,-33.203
19.531,-8.301,19.531,26.855,8.789
13.184,-15.137,23.438,23.438,32.715
8.789,-6.348,23.926,8.789,19.043
15.137,32.227,21.973,4.883,13.672
12.695,22.949,19.043,13.184,23.926
10.742,0.977,19.043,19.531,48.34
7.324,-18.555,13.184,12.207,41.992
13.184,-41.504,7.324,12.207,5.371
30.762,12.695,23.926,17.578,-6.836
30.273,69.336,24.414,18.066,63.477
24.414,-25.879,6.348,11.719,47.852
27.344,-42.48,15.625,13.184,10.742
32.715,30.762,26.855,25.879,28.809
39.062,42.48,16.602,37.598,62.988
40.527,40.039,16.602,37.598,47.363
44.922,13.672,22.461,35.156,42.969
40.039,16.113,21.973,28.809,45.898
34.668,1.953,12.207,20.996,32.227
44.922,-27.344,13.672,29.785,-16.602
41.504,34.18,29.785,36.133,-43.457
33.691,18.555,20.508,26.367,31.738
29.297,-27.344,6.836,17.09,56.641
23.438,28.32,15.625,18.555,23.926
27.832,50.781,22.949,16.113,44.922
40.039,64.453,28.32,24.902,51.27
41.016,42.969,23.926,29.297,51.27
27.832,27.344,12.207,22.461,74.707
28.32,13.672,13.184,20.508,62.988
34.18,25.391,26.367,19.043,67.383
31.738,40.527,23.926,21.484,19.531
27.344,-15.137,13.672,22.461,-30.762
28.809,-27.344,14.648,24.414,19.531
28.809,7.324,26.367,20.996,30.273
33.203,26.855,28.32,21.973,29.785
34.668,56.152,24.902,29.785,24.414
34.668,28.809,24.414,32.227,7.324
34.668,8.301,21.484,34.18,36.133
23.438,20.02,21.973,31.738,49.805
20.508,17.578,21.973,25.391,81.055
22.949,50.293,26.367,28.809,64.941
24.414,24.902,25.391,36.133,23.926
22.461,-16.602,12.695,26.855,35.645
14.648,-18.555,17.09,17.578,22.949
13.672,2.93,23.438,13.672,21.973
37.598,61.035,4.395,26.367,62.988
69.824,62.5,1.465,60.059,37.598
38.574,-21.973,16.602,34.668,10.742
-3.906,-22.461,34.18,0,3.906
-4.395,15.137,36.133,3.418,-23.438
10.742,37.598,29.785,4.883,16.602
11.719,35.156,37.598,16.602,28.32
12.695,-1.465,34.668,23.926,-4.395
5.859,7.324,26.367,13.184,23.926
7.324,-15.625,27.344,11.719,9.766
26.855,-13.184,29.785,20.996,-14.16
20.508,28.32,25.391,18.066,28.809
15.625,15.625,17.09,11.23,50.781
13.184,6.836,16.602,17.09,8.301
12.695,13.672,22.949,27.344,12.207
24.414,16.602,24.902,24.902,-3.906
28.32,60.059,19.531,23.926,17.578
27.344,26.855,19.043,32.715,42.48
26.367,-7.324,20.996,30.273,5.371
20.02,-3.906,15.137,24.414,3.418
21.484,16.113,15.625,28.809,18.066
23.926,47.852,20.508,34.668,21.484
31.738,-17.578,18.555,40.039,21.973
31.25,-51.27,16.602,34.668,84.473
23.438,21.973,28.809,23.926,72.754
24.902,50.781,26.855,22.461,26.855
26.367,56.641,20.508,21.973,20.508
26.367,27.344,22.461,24.414,-21.973
23.926,19.531,16.113,29.785,11.23
20.508,-3.418,10.254,22.461,28.809
24.414,-2.441,21.973,21.973,-14.16
31.738,52.246,28.32,27.832,-35.645
38.086,40.039,17.578,39.551,-25.391
31.738,13.184,19.531,41.504,0.977
20.996,-16.113,24.902,27.344,-14.16
23.438,-6.348,25.879,22.461,50.781
30.273,57.129,27.344,22.949,64.941
27.344,35.156,28.32,28.32,39.062
22.461,-30.273,24.414,24.902,53.223
12.207,3.906,22.461,13.672,13.184
15.137,33.203,15.625,15.137,6.836
34.668,61.523,21.484,25.879,55.176
32.715,53.223,23.926,27.344,61.035
21.973,10.742,22.949,18.555,41.504
15.625,-0.977,19.531,8.301,27.344
20.996,12.695,22.949,7.324,68.359
33.203,25.879,24.414,14.16,45.898
34.668,20.996,21.484,20.02,9.277
28.32,30.273,18.066,13.672,23.926
23.926,57.617,19.043,8.301,41.016
28.32,34.18,19.043,9.766,-8.301
31.738,55.664,24.414,13.184,8.301
33.691,83.984,29.297,20.996,59.57
28.32,3.906,16.113,17.09,34.668
19.531,17.578,21.484,10.254,63.477
17.578,59.57,23.438,11.23,40.039
12.695,52.246,7.324,9.277,14.648
12.695,78.613,18.555,19.043,24.902
18.066,8.301,12.695,24.902,44.434
19.531,-26.367,14.648,19.043,24.902
0.977,32.227,28.32,5.859,3.906
24.902,59.082,15.625,23.926,27.344
71.289,82.52,15.137,75.684,0
40.039,47.363,35.156,61.035,-0.488
-12.695,22.949,44.434,10.742,13.184
-29.297,13.184,39.062,-5.859,4.883
-34.668,18.555,43.457,-13.184,44.434
-31.738,33.691,52.734,-14.16,25.879
-43.457,0,61.035,-23.438,-19.043
-64.941,7.812,64.941,-40.527,83.496
-83.984,-39.062,56.641,-53.711,68.359
-84.961,-49.316,66.406,-56.641,-4.395
-79.102,17.578,75.195,-50.781,62.5
-79.102,-26.855,74.707,-46.387,42.48
-83.008,-33.203,81.543,-42.969,-20.996
-87.891,7.324,75.684,-40.527,41.992
-90.332,-6.836,75.195,-43.457,103.027
-80.078,20.508,80.566,-25.879,80.566
-61.523,-6.348,71.289,-4.883,68.848
-62.012,-45.41,64.941,-11.719,26.855
-66.895,-15.137,76.172,-6.836,3.418
-55.176,-24.414,69.824,-1.953,35.156
-38.086,-12.207,62.012,2.93,48.34
-32.227,-0.488,64.941,7.324,25.879
-37.109,-63.477,55.176,-4.883,5.371
-51.758,-47.852,49.316,-12.695,-0.488
-50.293,20.996,47.363,-14.16,10.254
-29.297,28.809,55.176,-3.906,31.25
-20.508,33.203,56.152,9.277,-17.09
-23.926,16.602,45.41,2.93,-40.039
-23.926,19.043,47.363,0.977,-2.93
-22.461,3.418,42.969,-1.953,5.371
-10.254,20.02,46.875,-2.441,-14.648
-0.977,53.223,46.875,6.836,34.18
1.953,15.625,40.039,15.137,61.523
-5.859,8.789,35.645,7.812,50.781
-10.254,16.113,36.133,1.465,43.457
3.418,18.066,42.969,4.883,2.93
14.648,46.875,41.992,16.602,-27.344
13.184,-20.02,32.715,20.02,-24.902
12.695,-19.531,38.574,16.113,-4.883
17.09,9.277,48.34,24.414,10.254
20.02,11.719,46.875,23.438,31.25
19.531,65.43,40.527,23.438,24.414
21.973,45.898,32.715,24.902,34.18
21.484,35.645,36.621,20.02,48.34
13.672,-10.254,28.32,16.113,42.969
15.137,-11.719,24.902,15.137,29.297
18.066,59.57,34.18,13.184,-8.301
15.137,28.32,24.414,20.508,-23.926
10.742,18.066,25.391,23.438,34.668
5.859,28.809,26.855,15.137,54.199
10.254,11.23,20.02,17.09,17.578
20.02,57.617,31.25,26.855,32.715
15.137,16.602,29.297,23.926,73.73
16.602,-31.738,22.461,11.23,52.734
8.301,2.93,30.762,0.977,23.926
10.254,-6.836,29.297,5.371,31.738
30.762,22.949,31.738,26.367,-1.465
32.227,18.066,26.367,39.551,-17.09
25.391,-5.371,14.648,27.832,50.293
20.996,35.645,27.832,24.414,42.969
28.32,34.668,28.809,38.574,-22.949
37.598,57.129,25.879,44.434,-10.742
32.715,52.246,22.949,33.203,2.93
24.414,20.508,12.207,27.832,3.906
29.297,34.668,13.184,35.156,59.082
36.133,14.16,22.949,33.691,78.613
36.621,34.668,24.902,36.133,23.926
37.598,50.781,8.301,38.086,44.922
35.645,2.93,7.812,30.762,38.086
23.926,-17.578,11.23,24.902,30.273
18.555,-8.301,12.695,23.926,33.203
32.227,40.527,16.602,33.203,8.301
37.109,61.035,18.066,40.527,37.109
25.879,28.809,19.043,27.832,36.133
21.484,32.227,18.555,24.902,30.762
24.902,15.625,17.09,33.203,59.082
27.832,19.043,16.602,25.391,39.551
32.227,65.43,23.926,24.902,75.195
37.109,-7.812,17.578,27.832,62.012
27.832,-20.02,8.789,24.414,21.973
23.926,0.488,12.695,29.785,12.207
38.574,-12.695,14.648,34.18,-19.043
43.457,62.012,26.367,38.574,58.594
38.574,26.855,25.391,38.574,41.992
32.715,18.555,21.973,33.203,-8.789
20.508,26.855,15.137,31.738,24.414
25.879,0,14.16,28.32,13.184
38.086,41.992,24.902,23.926,9.766
29.297,-19.531,6.836,22.949,-13.672
22.461,-45.41,9.277,24.902,-24.414
17.578,21.484,20.02,20.508,4.883
18.066,-6.348,18.555,19.043,-25.391
19.043,-1.953,18.555,20.508,-18.066
20.02,-13.184,17.578,27.344,20.508
17.578,-7.324,27.344,24.902,53.711
6.348,32.715,32.715,20.508,14.648
2.441,27.344,36.621,15.625,-22.461
6.836,41.504,38.574,8.789,6.836
-0.488,26.855,33.203,10.742,-21.973
-16.602,35.645,36.621,-1.465,-8.789
-30.273,26.367,34.18,-16.602,-37.598
-30.762,5.371,34.18,-17.578,-58.594
-28.32,51.27,47.363,-27.832,0
-26.367,44.434,34.668,-34.668,15.625
-26.855,6.348,28.809,-24.414,19.043
-53.711,21.973,48.34,-39.551,86.426
-80.078,7.812,51.758,-69.824,46.875
-81.543,24.902,57.617,-72.754,-16.113
-68.359,52.734,63.477,-55.176,-14.16
-63.477,-22.949,55.176,-62.5,-19.531
-92.285,-2.441,64.453,-89.355,5.859
-116.699,44.434,66.895,-110.84,41.016
-103.027,43.457,58.594,-107.91,26.367
-110.352,78.613,62.988,-108.398,19.531
-127.93,64.453,61.035,-123.047,42.969
-125.488,55.664,63.965,-120.117,40.039
-125,12.207,61.523,-118.164,80.078
-122.559,35.156,64.453,-125.977,63.477
-128.418,98.633,68.848,-128.418,50.293
-133.789,16.602,59.082,-132.812,49.316
-125.977,1.465,59.082,-125,-2.441
-130.371,72.754,70.801,-114.746,5.859
-134.766,88.379,66.406,-125.488,38.086
-121.094,125,66.406,-116.211,33.203
-111.328,117.676,69.824,-94.727,42.48
-102.051,102.539,68.359,-94.238,31.738
-92.285,72.754,62.988,-91.309,-31.25
-79.59,82.52,55.176,-73.242,-31.738
-57.129,136.23,57.129,-45.898,-8.789
-41.504,108.398,57.617,-24.414,44.434
-30.762,93.75,49.316,-18.555,70.312
-22.949,128.906,51.27,-9.766,16.602
-12.695,123.535,44.434,3.418,45.898
1.953,128.906,39.062,20.02,100.586
17.09,92.285,29.297,36.133,83.984
22.949,84.473,23.438,34.18,119.629
27.832,61.035,20.02,28.32,89.844
41.504,34.668,12.207,41.992,48.828
59.57,66.895,11.23,59.57,51.758
71.777,40.039,7.812,66.895,-11.719
70.801,23.438,-1.465,67.383,-7.812
69.336,25.391,0.977,66.406,-3.906
71.289,28.809,3.418,66.406,24.414
78.613,95.215,1.953,79.59,89.355
88.867,76.172,-2.441,89.844,90.82
93.75,4.883,-7.812,90.82,60.059
87.402,53.223,-1.465,91.797,64.941
87.891,60.059,-6.836,89.355,72.754
104.98,67.871,-1.465,89.844,61.035
111.816,71.777,-2.441,101.562,66.406
115.234,37.109,-8.301,111.328,21.973
113.77,56.641,-2.93,106.934,37.109
102.051,11.23,-4.395,105.469,58.594
103.027,17.578,-4.395,113.281,21.484
108.398,86.914,-1.953,113.77,56.641
102.539,15.137,-9.766,107.422,65.43
87.891,15.137,-6.836,96.191,32.715
80.566,63.965,0.977,90.82,51.758
88.867,51.758,3.418,104.98,43.945
95.215,69.824,8.789,101.562,53.711
97.168,44.922,3.418,93.75,83.496
91.797,31.738,0,95.703,66.895
80.566,13.184,-0.977,88.867,37.598
87.402,13.672,6.348,87.891,50.781
94.238,14.648,15.625,93.75,82.52
83.984,-1.465,8.301,90.82,45.898
73.73,36.621,11.23,82.52,62.988
70.312,24.414,7.812,78.613,84.961
76.172,-2.441,1.953,75.684,51.27
78.125,42.48,9.277,81.055,82.031
75.195,-25.879,5.371,72.266,75.684
83.496,-49.316,6.836,66.406,32.715
78.125,-6.348,6.836,71.289,5.371
62.988,-16.113,1.953,62.988,29.297
72.754,26.367,9.766,71.777,60.547
79.59,21.484,13.184,79.59,95.703
75.684,-24.414,15.137,78.125,49.316
66.895,-35.645,13.184,67.383,-20.02
64.453,-20.02,13.184,58.105,-7.324
75.195,32.227,17.578,75.195,1.465
72.754,8.789,18.555,77.637,6.836
68.359,-47.363,12.207,60.547,-35.645
59.57,9.277,7.812,53.223,-57.617
50.293,18.555,7.324,45.898,-26.855
59.082,26.367,13.672,49.316,25.879
64.453,28.32,18.066,53.711,38.574
58.594,29.297,25.391,56.152,17.09
48.828,30.273,21.973,42.48,-5.859
49.316,-27.832,12.695,29.297,-20.508
56.152,23.926,31.25,38.574,17.09
53.711,58.105,35.156,41.992,-1.465
45.41,-7.812,16.602,32.715,1.953
43.457,38.574,26.855,34.668,37.109
39.551,62.988,29.785,40.039,42.48
41.016,62.988,27.832,31.738,11.719
52.246,82.52,36.133,34.18,-4.883
48.828,79.102,36.133,35.645,40.039
42.969,97.656,33.691,25.879,64.453
44.434,50.293,25.879,20.508,49.316
45.41,28.809,25.879,19.531,-20.508
48.34,92.773,30.762,21.973,40.527
46.387,59.082,22.949,22.949,106.934
41.504,79.59,36.133,21.484,103.027
30.273,114.258,42.969,20.508,72.266
23.438,84.473,30.762,23.438,27.344
31.738,100.586,34.18,25.391,-27.344
31.738,93.262,41.016,24.902,-60.059
26.367,104.492,41.992,23.926,-14.648
20.02,87.402,35.156,16.113,33.691
21.484,66.895,34.668,10.742,22.461
36.133,100.098,45.41,17.578,-35.645
33.691,102.051,44.434,24.902,-28.32
22.461,74.219,29.785,19.043,-17.09
18.555,71.289,30.273,20.508,20.02
25.879,60.547,31.738,20.508,24.902
35.645,116.699,40.527,16.602,-42.48
32.227,105.957,42.969,19.531,-26.855
26.855,66.895,34.18,19.043,5.859
20.508,132.324,43.457,15.625,48.828
23.438,108.887,43.457,16.113,-1.465
32.715,128.906,46.387,27.832,-37.598
34.668,135.254,44.922,36.133,-18.066
29.785,120.605,43.457,31.25,-17.578
19.531,126.465,40.527,20.996,19.043
17.578,75.195,33.203,16.113,26.367
27.344,120.117,41.992,22.461,48.34
33.203,132.812,47.363,33.691,41.016
27.344,85.938,40.527,29.297,38.574
21.484,108.887,40.039,17.578,68.359
19.531,86.426,27.344,21.973,17.09
22.949,95.215,28.809,32.227,-3.418
33.691,112.305,38.086,35.645,49.805
32.715,66.895,27.832,13.672,49.316
23.926,90.82,20.996,-6.348,21.973
20.508,83.496,17.578,3.418,13.672
25.879,79.102,32.227,4.883,32.227
28.809,86.914,29.297,11.719,21.484
30.273,33.203,11.23,19.531,-1.465
32.715,86.426,24.902,22.949,1.953
20.508,118.164,35.645,17.578,-8.789
23.926,95.703,30.762,17.09,-29.297
35.156,137.695,41.016,31.25,25.391
31.738,127.441,40.039,28.32,23.438
26.855,123.535,33.203,33.691,-15.137
22.949,104.492,36.621,31.25,-23.926
26.367,106.934,38.574,25.879,-5.371
31.738,150.391,47.363,22.949,37.598
27.344,137.695,49.805,23.438,2.93
27.832,105.469,43.457,28.32,-43.945
20.508,92.773,50.293,25.879,-29.297
10.742,110.84,43.945,14.16,-16.113
24.414,169.434,40.039,15.625,41.504
33.203,102.051,27.832,18.555,29.297
23.926,77.637,32.227,20.508,-23.438
18.555,148.438,63.965,18.066,20.02
20.996,134.766,38.574,13.184,41.016
29.785,126.953,20.508,21.973,5.371
32.715,106.934,28.32,20.508,-20.996
31.25,145.02,30.762,13.672,-2.93
18.066,149.414,36.621,10.742,42.969
17.578,83.984,36.621,20.508,23.438
34.18,113.77,30.762,25.879,-15.625
30.273,113.77,26.367,15.625,-9.277
19.531,103.027,36.621,11.719,-15.625
12.695,184.082,49.316,22.949,73.242
3.418,149.414,30.762,16.602,70.801
14.16,157.715,40.039,12.207,19.531
22.461,168.945,46.875,15.137,49.316
13.672,143.066,35.156,6.836,20.508
9.277,152.832,41.504,12.207,34.668
11.719,119.629,48.34,14.648,55.664
19.043,124.512,61.523,12.695,69.824
24.902,112.793,48.34,8.789,48.34
21.973,82.031,43.945,0,40.527
15.625,125.977,49.805,-4.883,48.828
9.277,107.422,38.574,-5.859,41.504
11.719,101.074,44.434,-0.977,-11.23
15.625,124.512,38.086,6.348,-3.906
11.23,108.398,16.113,3.906,15.625
5.371,128.418,20.02,-2.441,51.758
8.301,71.289,23.438,3.418,71.777
13.672,46.387,18.066,7.812,14.648
14.648,73.73,14.16,5.859,-12.695
10.742,51.27,11.719,7.324,5.371
8.301,16.113,11.23,10.742,8.789
4.883,-37.109,1.953,7.324,-28.809
9.277,-8.301,-0.977,6.836,17.09
22.461,48.828,6.836,17.09,76.66
11.23,10.742,6.836,14.648,56.152
3.418,-11.719,15.137,14.648,16.602
2.441,-50.781,13.184,12.695,-44.922
-3.906,-83.008,19.531,0.488,-62.012
6.348,-28.809,37.598,8.789,-4.883
12.695,-83.008,15.137,8.789,37.598
8.301,-120.117,8.301,1.465,7.324
0.977,-72.754,24.414,9.277,-30.762
3.418,-131.348,22.461,6.836,2.441
15.137,-82.52,31.25,7.324,68.359
21.484,-99.609,23.926,16.602,71.289
16.602,-145.508,20.02,11.719,67.383
12.207,-105.469,29.297,17.09,27.344
21.484,-116.699,34.18,20.02,-16.602
26.855,-85.938,34.18,13.184,59.082
23.926,-97.168,17.09,21.484,25.879
27.832,-107.422,14.16,25.879,-27.832
24.902,-109.375,16.113,25.391,30.762
24.414,-147.949,11.23,21.484,13.184
33.691,-128.418,15.137,23.926,-37.109
43.457,-137.207,23.926,34.18,44.434
35.156,-156.25,22.461,29.785,83.008
21.973,-105.957,18.555,24.902,66.406
22.461,-132.812,13.184,22.461,102.051
31.25,-140.625,17.578,22.949,79.59
39.062,-151.367,22.949,26.855,-11.719
37.598,-173.828,20.02,26.855,-14.16
32.715,-140.137,18.066,22.949,48.34
20.996,-140.137,20.02,17.09,47.852
20.02,-127.93,22.461,15.625,56.152
36.133,-112.793,21.484,22.949,57.617
36.133,-122.559,16.113,30.273,19.531
25.391,-130.859,14.16,22.461,-0.488
15.137,-158.203,6.836,8.789,-4.883
22.461,-118.164,13.184,9.766,-3.906
42.48,-63.477,19.531,17.09,43.457
34.18,-127.93,15.137,15.137,44.434
22.949,-105.469,14.16,10.254,16.602
19.043,-59.57,11.719,16.602,31.738
24.902,-86.426,12.695,23.438,6.836
38.086,-49.805,13.184,26.367,51.758
36.621,-53.223,1.465,23.438,64.453
25.879,-49.316,7.324,21.973,61.035
18.555,-75.195,12.207,25.879,85.449
20.02,-133.301,-4.883,25.391,38.086
30.273,-71.777,5.371,21.973,62.988
29.785,-104.004,4.395,22.461,25.391
24.414,-120.117,-0.977,14.648,-7.324
17.578,-51.758,5.371,14.648,8.301
17.09,-73.242,2.93,18.555,15.625
25.879,-55.664,6.348,15.625,41.016
24.414,-58.594,4.883,21.484,47.363
18.066,-65.43,5.371,27.832,9.277
10.742,-66.406,4.883,18.555,35.156
15.625,-84.961,8.301,13.672,104.98
23.438,-90.332,10.742,14.16,31.25
19.043,-81.543,10.742,19.043,35.156
23.438,-46.875,19.531,17.578,92.285
18.555,-37.109,7.812,6.836,44.434
12.207,-68.848,0.488,7.324,0.488
28.809,-35.156,10.742,11.23,29.297
31.25,-38.086,5.859,15.625,44.434
13.672,-48.828,4.883,16.113,47.852
18.555,-27.832,8.301,18.555,16.602
18.555,-60.059,4.883,16.602,13.184
20.508,-40.039,5.371,14.648,21.973
32.227,-46.875,0.488,27.832,-15.137
32.715,-62.012,1.465,31.738,-5.371
23.438,-35.645,10.742,15.137,6.836
18.555,-51.27,12.695,10.742,11.719
20.508,-21.973,12.695,13.184,35.645
29.785,0.488,9.766,21.484,42.969
27.832,-40.039,5.859,19.043,54.688
15.137,-6.348,4.883,14.16,41.016
11.23,-14.16,-2.441,16.602,-41.992
8.789,-15.137,10.742,19.043,-29.297
24.414,15.625,14.16,24.902,9.766
26.855,8.301,5.371,24.902,9.766
11.719,15.137,2.93,26.367,19.043
1.953,-12.695,2.441,18.066,50.293
11.23,-53.223,3.906,19.531,50.293
29.297,-30.273,9.277,20.996,-44.434
30.273,-20.02,14.16,18.066,0
21.484,16.113,17.09,13.672,87.891
22.949,44.434,29.785,16.113,65.43
21.973,19.531,19.531,20.996,64.453
24.414,39.062,6.348,17.578,31.25
29.297,35.156,15.625,16.113,-19.531
25.391,47.852,26.367,24.414,-9.277
25.391,47.363,23.438,27.832,28.32
27.344,32.227,13.184,26.367,53.711
42.969,51.758,11.23,30.273,46.875
45.41,27.832,8.789,35.645,0.488
31.25,24.414,9.277,27.344,-45.41
27.832,45.898,20.996,26.367,-31.738
26.855,25.879,20.508,26.367,24.902
28.32,61.035,11.23,21.973,46.387
33.203,20.508,10.254,36.621,9.277
27.344,7.812,11.23,30.762,34.18
20.996,69.824,18.066,18.066,96.191
17.09,27.832,20.02,20.02,55.176
20.02,42.969,28.32,17.578,19.531
26.855,66.895,39.062,18.555,31.738
27.832,69.824,26.367,20.508,54.688
24.902,44.922,10.254,18.066,18.066
18.066,16.602,16.113,19.531,21.484
30.273,88.379,25.391,21.973,70.801
35.156,90.332,13.184,14.648,50.293
23.438,29.297,1.465,0.488,-42.48
25.391,101.562,20.02,7.324,-58.105
21.484,96.68,23.438,15.625,-29.785
14.16,64.941,13.184,7.812,-85.938
21.484,88.867,9.766,4.883,-65.43
29.785,78.613,10.254,17.09,5.859
20.508,84.961,18.555,15.625,0.977
15.137,65.918,30.273,13.184,-47.852
16.602,33.691,17.09,13.672,-39.062
18.066,59.57,9.277,15.625,20.996
16.113,103.027,25.879,16.113,74.219
14.16,122.559,30.762,20.02,87.402
11.23,58.105,20.02,20.508,6.348
13.672,46.387,21.973,13.672,-5.371
30.762,78.613,18.555,14.16,52.734
29.297,62.012,15.137,22.461,77.637
20.02,57.129,19.043,19.531,-31.25
17.578,57.129,12.207,7.324,-13.184
16.113,44.434,-0.977,11.719,90.332
21.973,49.805,1.953,14.648,44.434
26.367,35.645,14.648,10.254,-5.371
18.555,20.02,21.484,13.184,-20.996
8.301,30.762,17.09,7.812,-4.883
3.418,21.484,18.555,-2.93,34.18
13.672,47.363,30.762,-0.488,29.785
21.973,23.926,33.691,6.348,25.879
11.719,-0.977,38.086,7.324,-4.395
3.418,76.172,46.387,8.789,-53.711
4.395,87.402,40.527,0,15.137
10.254,100.586,37.598,-1.465,85.938
13.672,113.281,49.316,8.301,44.922
15.625,108.398,55.664,14.648,-16.602
19.531,96.191,36.133,18.066,46.875
11.23,50.293,22.461,8.789,87.402
16.602,94.238,37.598,3.418,70.801
28.32,103.027,39.062,17.578,105.957
29.297,61.035,35.156,16.602,36.621
19.043,121.582,31.738,0.488,39.062
6.836,76.172,29.785,-1.465,48.34
9.277,54.688,29.297,-6.836,-9.277
19.043,74.219,24.902,-1.465,-3.418
19.043,85.449,26.855,13.184,29.297
13.184,97.656,28.809,3.418,84.961
19.043,48.828,27.344,-6.836,76.66
34.668,19.043,37.109,1.953,23.438
41.992,32.715,55.664,12.695,-3.906
25.391,36.133,36.133,6.348,49.805
21.484,86.914,36.133,15.137,36.133
26.855,80.566,34.668,5.859,28.32
19.531,40.039,25.879,-10.254,37.109
20.508,70.801,34.668,7.812,10.742
19.531,78.125,40.039,13.672,22.461
11.23,74.707,32.227,8.789,-0.488
13.184,59.082,24.414,8.789,-1.953
17.09,51.758,28.32,12.695,7.324
25.879,69.336,27.832,13.672,-7.324
23.926,60.547,22.949,14.16,2.93
16.113,66.895,21.484,13.672,45.41
9.766,68.359,15.137,5.859,29.785
-3.418,45.898,10.742,-6.348,57.617
7.324,52.734,21.484,-2.441,29.785
19.043,15.137,17.578,7.812,29.297
7.324,35.645,20.02,-4.395,102.051
1.953,59.57,19.531,-13.672,53.711
7.812,17.578,16.602,-0.488,-11.23
9.766,44.434,28.809,-1.953,-18.555
14.648,67.871,28.809,-0.977,34.18
12.207,63.965,24.414,6.836,60.059
6.836,5.859,19.531,5.859,-15.625
5.859,-19.531,24.414,2.93,3.906
13.672,58.105,43.457,6.836,133.789
29.785,66.406,47.363,17.09,123.047
19.043,43.945,37.109,12.695,25.391
1.953,36.133,27.344,6.348,-40.039
-1.953,-0.488,21.484,-1.953,-23.926
3.906,20.996,27.344,3.418,8.301
5.859,4.395,20.996,0.977,56.152
12.695,-41.504,15.625,2.441,38.574
14.16,22.461,24.414,14.648,3.418
6.348,19.531,31.738,3.906,23.438
8.301,-18.555,34.668,-0.488,-56.152
17.09,-10.254,27.344,7.812,-27.344
21.484,-13.672,25.391,-4.395,-11.23
10.254,40.039,26.367,-2.93,-54.688
2.441,38.574,21.973,3.906,30.273
10.254,9.277,24.414,-5.371,62.012
14.648,-0.488,32.715,5.859,-2.441
11.719,20.02,32.715,16.602,15.625
7.812,39.062,28.809,10.742,54.688
-1.465,-15.625,20.02,4.395,11.719
-1.953,-33.203,14.16,2.93,-28.809
12.695,-13.672,29.297,11.719,-14.16
11.719,-22.461,36.133,14.648,-19.531
-1.465,-18.066,19.043,2.441,-23.926
-0.977,-14.648,16.113,-0.977,20.02
4.883,-7.812,22.461,3.418,-12.207
10.742,15.625,20.02,2.93,18.066
7.324,-32.227,24.414,5.859,48.828
-0.488,-0.977,32.227,3.906,46.387
-7.324,39.551,24.414,-1.465,62.5
1.953,-7.812,13.672,1.953,74.219
8.301,-13.184,14.16,-1.953,70.312
13.672,-3.906,23.926,-2.441,22.461
12.695,3.418,26.855,3.418,-22.461
5.859,-41.016,20.508,4.883,-14.648
5.859,-51.758,19.043,1.465,3.418
10.742,-9.766,29.785,1.465,16.602
8.301,-60.547,28.809,8.789,-14.648
4.395,-41.016,27.832,8.789,-8.301
-4.395,26.855,49.805,-2.93,25.879
-7.324,-11.23,45.41,-3.906,57.617
10.254,-11.23,32.227,-2.441,67.383
17.09,4.883,34.668,4.883,11.23
10.254,11.719,40.527,12.207,-2.93
6.836,14.16,42.969,4.883,24.902
5.371,-15.625,40.527,5.371,39.551
12.207,-32.715,32.227,7.812,9.766
20.508,-36.621,35.156,9.766,20.508
18.555,-13.184,57.129,7.324,37.598
11.719,52.734,49.805,9.766,0.488
3.906,26.367,30.762,5.371,9.766
0.977,-1.465,30.273,-6.348,1.953
8.301,19.531,39.062,7.324,-30.762
19.043,53.711,47.363,20.996,5.859
13.184,66.406,41.504,11.23,99.609
6.348,25.879,42.969,4.395,134.277
4.395,-3.418,34.18,9.277,42.969
17.578,-12.207,20.02,18.066,0
23.926,-7.812,36.133,18.555,11.719
6.348,11.23,38.574,21.484,11.23
-5.859,9.277,28.809,20.508,44.434
5.371,13.184,37.109,7.324,33.691
24.902,7.812,34.668,10.742,25.879
24.414,10.742,25.879,11.23,31.738
8.789,48.828,26.367,-0.488,27.344
8.789,8.301,32.715,2.441,7.812
9.766,-2.441,39.551,0.488,-4.395
11.719,39.551,36.133,-2.93,-6.348
14.648,8.301,31.738,-2.93,-13.672
6.348,42.969,33.691,5.371,-9.277
9.766,47.363,33.691,11.23,4.395
8.301,19.531,36.133,5.371,4.395
4.883,85.449,45.898,2.441,39.551
13.184,37.598,47.852,6.348,33.691
14.16,26.855,62.012,18.555,-10.254
8.301,101.562,60.547,11.23,3.906
7.324,76.172,46.387,0.977,4.395
14.16,79.102,48.828,8.789,31.25
19.531,90.332,55.664,24.902,36.133
17.578,81.543,61.035,19.043,-8.789
21.484,70.801,58.594,7.812,-25.391
19.043,61.523,57.129,14.648,28.32
19.043,53.711,48.828,4.395,82.031
27.344,22.949,50.293,-0.488,42.48
21.973,28.809,54.199,2.93,5.371
9.766,111.328,56.152,8.301,62.988
13.672,83.496,60.059,9.766,64.941
27.832,68.359,58.594,11.719,58.105
37.109,87.891,60.547,20.996,49.805
36.621,95.215,53.223,24.414,46.875
30.273,82.031,41.992,21.484,32.715
14.16,33.691,36.133,11.23,-32.715
12.695,34.668,28.32,5.371,-41.504
22.461,56.152,33.203,5.859,23.438
31.738,57.617,44.922,18.066,41.992
26.855,53.711,41.992,23.438,3.418
12.207,49.805,37.598,13.672,10.254
11.719,84.473,36.621,6.836,46.875
15.625,60.547,17.09,8.789,31.25
11.719,30.273,19.043,13.184,-9.766
9.277,111.816,39.062,17.09,36.133
15.137,104.492,36.133,17.09,56.152
8.301,71.777,22.461,6.836,24.902
21.973,80.078,32.227,7.812,44.922
26.855,99.609,42.48,16.113,40.039
15.625,109.863,22.461,9.766,5.859
7.812,58.105,14.648,0.488,8.789
8.301,52.246,29.297,13.672,78.613
25.879,75.195,28.32,29.785,115.234
27.344,74.219,11.719,24.414,40.039
18.555,109.375,24.902,21.484,32.227
14.16,99.121,19.043,19.531,43.457
6.836,73.242,18.555,5.859,34.668
10.254,83.008,26.367,4.395,22.461
19.043,66.406,11.719,10.254,-8.789
11.719,103.516,14.648,11.719,-2.441
9.766,127.93,26.855,16.602,22.461
6.836,81.543,27.344,5.859,-2.441
9.277,62.012,34.668,7.812,-24.414
19.043,68.359,41.016,6.348,-30.273
13.184,133.789,53.711,4.883,-22.949
9.766,172.363,55.664,18.555,47.363
1.465,134.277,43.945,7.812,82.031
13.184,107.91,39.062,0.488,101.074
25.879,100.586,40.527,7.324,43.945
13.184,146.484,48.34,0.977,41.016
20.996,143.066,43.457,4.883,45.898
22.949,102.539,36.133,6.348,30.762
20.508,112.793,32.715,6.348,28.32
28.32,115.234,33.691,9.277,44.434
21.973,111.328,42.969,3.418,44.922
28.32,148.926,69.336,17.09,39.551
20.996,149.902,53.223,15.137,44.922
13.184,173.34,42.969,3.906,-15.625
35.156,200.684,61.035,12.207,30.273
30.762,231.934,61.523,7.812,55.664
24.414,345.215,83.008,8.301,49.316
20.02,334.961,77.637,7.812,28.809
9.277,300.781,47.363,2.93,6.348
19.043,341.309,57.129,4.395,34.18
22.461,375.977,79.59,20.508,-6.836
15.137,393.066,72.754,15.625,-4.395
7.324,343.75,54.688,-6.348,69.336
7.324,332.52,67.871,-4.883,66.406
23.438,350.586,77.148,-0.488,9.766
25.879,335.449,83.984,5.859,20.02
13.184,402.344,75.684,-2.93,57.129
4.883,389.16,41.504,-5.371,26.367
-3.418,351.074,50.293,-2.441,21.484
8.301,339.355,56.641,2.93,22.949
21.973,351.074,69.824,12.695,0.977
18.555,400.879,90.332,14.16,61.523
14.648,286.133,66.406,7.324,58.594
0,241.699,78.125,3.906,26.367
6.836,233.398,92.773,17.578,63.477
18.555,92.285,88.379,18.555,34.18
8.301,85.449,110.84,5.371,31.25
8.789,-452.148,124.023,13.672,60.059
3.418,-775.879,147.461,19.531,91.309
-2.93,-457.031,162.109,13.184,68.848
3.418,-322.266,171.387,13.672,33.203
6.348,-156.25,202.148,13.184,41.504
0.488,-18.066,212.402,16.602,55.176
-17.578,-6.348,200.684,7.812,79.102
-9.766,14.648,214.844,7.324,56.152
5.859,35.156,233.398,13.672,37.598
0.488,-62.5,259.277,6.836,52.246
0.488,-297.852,275.391,1.465,47.363
-3.906,-401.367,278.32,0,62.012
-1.465,-167.48,302.246,3.418,33.691
6.836,24.902,303.711,0.977,46.387
5.859,69.824,293.945,-5.371,39.062
3.418,131.348,309.082,4.395,7.324
-5.859,218.262,291.016,2.441,-3.906
-8.789,360.352,268.066,-13.184,48.828
2.441,-517.09,263.184,-11.719,47.363
0.977,-876.953,265.137,-5.371,10.742
5.371,-364.746,253.906,2.93,3.418
1.953,-185.059,235.352,-0.977,16.602
-8.301,164.551,213.867,-12.207,50.293
6.348,402.832,194.336,-1.953,23.926
8.789,520.508,188.477,-0.488,47.852
6.348,615.234,173.828,-7.324,55.664
16.113,604.98,143.555,1.465,-6.836
14.648,595.703,129.883,1.953,-40.527
15.625,592.773,120.605,-8.301,45.898
19.531,613.77,119.141,3.418,80.566
16.602,651.367,128.906,11.23,20.508
11.719,608.887,115.234,4.395,-25.879
8.789,577.637,95.703,-8.301,-39.062
20.508,569.336,89.844,-6.836,13.672
27.832,519.531,98.145,9.277,76.66
23.926,547.852,97.656,8.301,42.969
12.207,635.254,92.285,-1.465,96.191
8.789,572.266,94.238,-1.953,118.164
16.113,499.512,75.195,-3.418,18.066
25.879,500,80.078,4.395,-3.906
24.902,524.414,85.449,11.23,45.898
24.902,483.887,63.477,7.324,47.852
20.02,423.34,59.57,3.906,41.504
16.113,396.484,67.383,1.465,112.793
26.367,367.188,46.875,6.348,82.52
24.902,326.66,30.762,9.277,-11.719
19.531,313.477,42.48,16.113,-21.484
17.578,294.434,40.527,13.672,-0.977
12.695,291.992,34.668,6.348,61.035
22.949,224.121,24.902,14.16,41.016
21.973,222.168,21.973,14.648,-3.418
22.461,298.828,31.25,12.695,36.133
22.949,241.211,34.668,12.695,62.5
17.09,174.316,16.113,12.695,13.184
22.461,191.895,15.625,14.16,32.715
16.113,239.258,23.926,10.254,44.434
7.812,210.449,23.926,9.766,6.836
5.371,119.141,17.09,6.836,-33.691
2.441,120.605,1.953,-2.93,-42.969
5.371,158.691,5.859,-4.395,-25.879
11.719,187.5,28.32,8.789,43.457
10.254,192.871,25.879,7.324,48.34
0,134.766,9.277,3.418,-30.762
-1.953,138.184,2.93,-6.836,-3.906
13.184,106.445,-2.93,-2.441,51.758
18.066,101.562,7.812,6.348,73.73
13.672,175.293,14.648,2.93,35.156
10.742,123.535,-5.859,5.371,-13.184
7.812,76.66,0.488,4.395,18.555
21.973,63.477,20.02,14.16,56.152
29.297,72.266,26.855,19.531,33.203
23.926,150.391,23.438,24.414,5.371
24.902,137.207,28.32,31.738,-21.484
15.137,85.449,22.461,17.578,-10.254
15.625,64.941,7.812,20.02,23.438
22.461,90.332,26.367,31.738,41.992
21.484,116.211,36.621,23.926,17.09
22.461,99.609,24.902,22.949,8.301
17.578,72.754,22.461,17.09,-13.184
21.973,33.691,25.879,18.066,-89.355
19.531,54.688,30.273,19.043,-81.055
16.113,87.402,49.316,19.531,2.93
26.855,72.754,55.664,29.297,35.645
12.695,41.992,9.277,13.184,-28.809
0.488,46.875,4.883,2.441,-38.574
18.066,90.332,30.273,15.625,22.949
21.484,128.418,54.199,16.602,37.598
5.371,104.004,63.477,4.395,62.988
3.418,115.723,48.828,3.418,64.453
14.648,-88.379,59.082,14.16,37.109
24.902,-255.859,88.379,21.484,27.832
19.531,-65.918,95.703,15.625,3.418
16.602,-68.848,86.914,17.09,58.594
11.719,-61.523,84.473,14.648,45.898
7.324,70.801,93.75,0.488,-0.488
16.113,125,114.746,6.836,-7.324
15.625,187.5,118.652,1.465,2.93
5.859,357.91,120.605,-4.883,10.254
8.301,357.91,121.582,-2.93,8.789
7.324,295.41,113.77,-8.789,-8.301
5.371,350.098,114.258,-11.23,8.789
14.648,421.875,108.887,-3.906,18.066
11.23,483.887,98.633,7.324,26.855
-3.418,499.512,88.379,-4.395,56.152
-3.906,447.754,75.684,-18.555,40.039
14.648,358.398,64.453,-4.395,27.344
17.09,418.945,60.059,2.93,36.621
10.254,511.719,68.848,1.465,-12.207
9.766,478.027,56.641,-8.301,2.441
6.836,416.992,27.344,-7.812,31.738
11.23,436.523,11.719,1.465,31.738
5.859,104.98,12.695,-5.859,33.203
9.766,-282.715,17.578,1.465,27.344
9.766,-227.539,7.812,7.812,36.133
4.883,-85.938,-0.488,4.883,21.973
16.113,34.18,-11.719,8.301,48.828
15.137,126.465,-7.812,7.324,29.297
18.066,181.152,-4.395,13.184,20.02
27.344,197.266,-16.602,15.137,64.453
19.043,212.402,-28.809,2.441,45.898
18.066,182.129,-38.086,-6.836,33.203
30.273,189.941,-32.227,1.465,9.277
28.809,252.441,-31.738,11.719,33.691
16.113,216.797,-48.34,6.836,-13.672
5.371,187.5,-42.48,4.883,-33.691
18.555,159.18,-46.875,13.184,37.598
26.367,153.809,-57.129,11.719,54.688
30.762,215.82,-41.016,24.902,55.664
35.645,189.453,-50.293,31.738,32.227
26.367,40.039,-68.848,19.531,8.789
32.715,6.348,-62.012,20.508,10.254
41.992,43.457,-56.641,21.973,34.18
38.086,59.57,-71.289,21.484,41.016
32.227,141.113,-65.43,25.391,-11.719
27.832,128.418,-62.5,24.902,1.465
26.855,96.191,-72.266,20.02,36.621
35.156,107.91,-64.941,23.438,48.828
32.227,117.188,-58.105,30.273,28.809
34.668,109.863,-59.082,27.344,41.504
37.109,77.637,-69.824,23.438,71.289
25.391,32.227,-75.684,15.137,16.113
30.762,-15.137,-74.219,16.113,-32.715
34.668,34.18,-64.941,17.578,-10.742
35.156,106.934,-56.641,21.484,9.277
28.809,43.457,-57.129,26.367,46.875
22.949,-10.742,-51.27,16.113,41.016
39.062,-4.883,-46.875,13.672,-7.812
43.457,48.828,-44.434,19.043,-33.691
30.273,75.684,-43.945,18.555,-33.691
20.996,43.945,-57.129,13.672,-7.812
20.508,13.184,-60.059,9.766,34.18
29.297,-3.418,-51.27,11.719,23.438
39.062,42.48,-47.363,19.043,36.133
28.32,41.504,-42.969,21.484,66.406
24.902,-20.996,-42.48,18.555,-11.719
20.996,-9.277,-27.832,15.137,-32.227
20.02,-2.441,-30.273,10.254,36.133
27.832,-30.762,-47.852,8.301,46.387
17.09,39.551,-36.133,13.184,12.695
16.602,49.805,-26.855,21.973,3.418
12.695,11.23,-25.879,11.23,24.902
21.973,-11.23,-30.762,16.113,28.809
31.738,27.832,-19.531,29.785,72.754
13.184,66.406,-8.789,20.996,64.941
16.602,37.109,-6.348,26.367,96.68
11.23,-36.133,-18.555,14.16,60.059
4.883,-47.363,-34.18,7.812,17.09
19.531,-29.297,-26.367,14.648,81.055
24.902,25.391,-18.066,2.441,72.266
20.996,52.734,-4.883,9.277,31.738
12.207,11.23,-12.695,10.742,-16.113
18.066,-7.324,-6.836,13.184,-42.969
34.668,20.02,10.742,22.461,-10.254
28.32,54.688,-1.953,14.16,28.32
14.16,36.621,-13.672,8.789,69.824
12.207,-3.418,-14.648,9.766,39.062
19.043,-40.527,-16.113,5.859,-23.926
32.715,-61.035,-18.066,8.301,-18.066
34.668,-30.273,-7.812,19.531,-20.508
27.344,-0.488,4.395,23.926,11.23
20.508,-61.523,-6.348,12.207,-22.949
20.996,-73.242,-9.766,19.043,-35.156
34.18,-102.539,-9.277,27.344,10.254
31.738,-119.629,-8.301,22.949,22.949
32.227,-55.664,11.719,31.25,-24.902
41.504,-38.086,5.859,36.133,41.016
32.227,-75.684,-0.977,32.715,58.105
29.785,-92.773,2.441,34.668,-12.695
39.062,-48.828,13.672,41.992,42.48
46.875,-52.734,12.695,44.922,117.188
40.527,-94.727,-6.348,46.875,81.055
32.227,-97.168,-7.812,41.016,-41.016
41.992,-126.465,-3.906,38.574,-41.016
48.34,-117.188,1.953,33.691,-28.809
41.504,-23.926,10.254,30.762,-35.645
33.691,-37.109,-1.465,34.18,0.977
28.809,-91.797,-4.883,31.25,-7.812
39.062,-117.188,-7.812,33.203,35.156
41.992,-88.867,-9.277,39.551,59.082
32.715,-39.062,7.812,43.945,17.578
35.645,-69.336,-0.488,38.086,-3.906
33.203,-126.465,-3.906,28.809,14.16
30.762,-146.484,1.465,30.762,33.691
40.039,-133.301,2.93,32.715,32.715
40.527,-44.922,15.137,28.32,61.035
37.109,-34.18,17.578,31.25,44.434
30.762,-82.031,10.742,30.273,43.457
25.391,-125.488,9.277,24.902,14.16
29.785,-103.027,22.461,24.902,6.348
31.738,-35.645,18.066,26.855,46.875
38.574,-58.105,7.324,29.785,68.359
33.691,-104.004,7.324,25.391,72.754
36.133,-154.297,3.418,26.367,39.062
53.711,-150.391,7.812,39.062,3.418
48.34,-93.75,15.137,34.18,-14.16
34.668,-58.105,11.719,26.855,9.766
24.902,-59.082,8.301,22.949,88.379
29.297,-82.031,14.16,16.602,80.566
41.016,-141.602,5.371,22.461,12.695
39.062,-99.609,3.906,20.508,-2.441
32.715,-14.16,15.137,19.043,42.48
26.367,-65.43,15.137,20.508,67.383
28.809,-129.883,11.719,22.949,31.25
30.762,-121.582,5.371,31.738,16.113
29.785,-187.012,4.395,33.203,-0.488
33.203,-287.109,-1.465,39.062,1.465
33.203,-224.609,7.812,41.992,46.387
33.691,-165.039,12.207,37.598,24.414
37.109,-176.758,8.789,27.832,14.648
37.109,-142.09,16.602,20.508,72.266
29.297,-42.48,34.18,23.926,109.863
29.785,-90.82,35.645,30.762,71.777
23.926,-151.367,28.809,24.902,25.879
27.344,-167.48,20.996,21.484,-8.301
36.621,-116.211,17.578,22.461,2.93
32.227,-86.426,27.832,25.391,42.969
24.902,-129.883,22.949,20.508,-1.953
17.578,-162.109,16.602,18.066,33.203
25.879,-165.527,13.184,20.996,105.957
41.016,-112.305,16.113,24.414,47.852
34.668,-62.5,21.973,24.414,29.785
26.367,-115.723,17.578,23.438,34.18
26.855,-138.672,13.672,22.461,-42.48
36.133,-151.855,13.184,23.438,-12.207
39.551,-160.156,17.578,22.461,24.414
33.203,-83.008,23.438,16.602,-7.324
36.621,-77.637,24.414,26.855,42.48
30.762,-122.07,24.414,34.668,66.406
36.621,-172.852,13.672,31.25,26.367
50.293,-178.223,1.465,35.156,18.555
39.062,-146.484,5.371,38.574,8.789
34.668,-144.043,15.137,38.086,-4.395
30.762,-134.766,19.043,36.133,67.871
32.715,-154.297,8.301,33.691,67.871
44.922,-195.801,10.254,36.133,14.648
41.504,-132.324,24.902,34.668,42.48
38.086,-81.543,20.996,34.668,42.969
35.156,-90.82,24.902,34.18,51.758
38.574,-129.395,26.367,34.668,30.762
48.34,-131.348,27.344,39.551,0.977
46.875,-81.055,34.18,37.598,3.418
40.039,-93.75,26.855,36.621,41.016
34.18,-120.117,30.762,37.109,66.895
33.203,-109.863,37.109,34.668,21.973
36.621,-156.738,25.391,25.391,30.273
34.668,-116.699,24.902,22.461,60.547
31.738,-28.32,32.715,29.785,24.414
31.25,-83.984,21.484,20.02,-60.059
31.738,-95.703,23.438,20.02,12.207
42.969,-84.961,31.738,36.133,86.426
48.828,-83.496,30.762,36.133,26.367
45.41,-62.012,37.109,40.527,37.109
44.434,-81.055,35.156,38.574,33.203
39.062,-137.207,23.438,40.527,10.254
36.621,-188.965,19.531,34.668,12.695
39.551,-158.691,26.367,31.25,-10.742
32.227,-60.059,38.574,42.48,-20.508
30.762,-73.73,31.25,35.156,31.738
30.762,-132.324,21.973,26.855,79.59
31.25,-195.312,17.09,31.25,37.598
39.062,-156.738,24.902,36.621,12.207
39.551,-96.68,27.344,38.086,-12.695
34.18,-87.402,28.32,35.645,33.691
23.926,-101.074,27.344,33.691,50.293
33.203,-138.672,22.461,31.738,20.02
40.527,-125,22.461,31.738,8.789
37.598,-71.289,26.855,33.203,28.809
40.527,-35.156,31.738,32.227,76.66
32.715,-77.148,25.391,25.391,69.824
34.668,-151.367,16.602,27.832,73.242
46.387,-156.25,17.578,28.32,25.391
45.41,-21.973,32.715,33.203,35.645
41.504,19.043,34.668,38.574,31.25
30.762,-29.297,30.273,24.414,6.348
26.855,-61.523,30.762,25.391,66.406
38.574,-68.359,34.668,36.133,25.391
34.18,-22.461,38.086,34.18,-7.812
24.902,-63.965,35.645,32.227,25.879
32.227,-119.629,38.574,31.25,3.906
27.344,-134.277,30.273,23.438,-4.883
27.344,-103.516,31.738,21.973,-12.207
34.668,-21.973,47.852,22.949,30.273
32.227,-32.227,45.898,23.926,36.621
29.785,-76.66,40.527,24.414,18.555
27.832,-85.449,35.156,17.578,80.078
36.621,-137.207,24.414,20.508,70.312
36.621,-81.543,33.691,20.508,65.918
30.273,-11.719,39.062,22.461,75.684
30.762,-62.5,33.203,23.926,62.988
25.391,-131.348,31.738,21.484,17.578
24.902,-181.641,20.02,14.648,-4.395
30.273,-107.91,20.508,13.672,35.156
32.227,-30.273,33.691,25.879,-6.348
37.598,-86.914,23.926,29.297,57.129
33.691,-145.996,15.625,24.902,55.176
29.785,-137.695,23.438,21.973,-2.441
37.109,-89.355,26.367,29.297,24.414
37.598,-75.195,28.809,31.25,5.371
31.25,-93.75,33.203,26.367,4.395
20.996,-106.934,19.531,19.531,-12.695
29.785,-130.371,6.836,13.184,-9.766
38.086,-100.586,16.602,16.602,26.855
37.109,-47.363,23.438,25.391,27.832
34.18,-18.066,19.531,24.414,47.363
27.832,-24.414,17.09,20.02,6.348
33.203,-78.613,15.137,18.555,11.719
39.551,-36.133,27.344,21.973,5.859
34.18,44.922,36.133,30.762,-29.297
28.32,6.348,34.668,34.18,-16.113
15.625,-3.906,38.086,24.414,-2.441
19.531,-42.969,29.297,26.367,31.25
29.785,-23.438,28.32,31.738,43.945
26.855,59.082,34.668,28.809,50.293
33.203,10.254,29.297,33.203,69.336
23.926,-23.926,25.391,20.996,58.105
16.113,-23.438,28.809,14.648,59.082
32.715,-75.684,24.902,22.949,22.461
35.156,-2.441,31.25,19.043,26.855
27.832,101.074,42.969,19.043,65.918
25.879,52.734,41.016,16.602,40.039
23.438,-18.066,30.273,11.23,-7.324
28.32,-14.16,22.461,17.578,-14.648
30.762,31.738,26.367,24.902,26.855
36.133,3.906,19.531,32.227,7.812
38.086,-15.625,16.113,39.551,-21.973
12.695,-61.035,20.508,30.273,-8.301
12.207,-116.699,22.949,17.578,-20.508
28.809,-43.945,36.133,20.02,-34.18
20.508,43.457,41.504,20.02,-24.902
14.16,26.855,38.574,20.02,38.574
20.02,-11.23,38.086,21.973,54.199
26.855,-29.297,36.133,20.02,22.949
34.668,13.672,44.922,28.32,41.992
31.738,15.137,45.41,28.809,29.297
25.879,-11.719,44.922,27.832,-18.555
23.438,-32.227,42.969,26.367,-30.273
25.879,-43.945,39.062,24.414,-30.762
39.551,-6.348,44.434,34.668,-14.16
39.062,13.184,47.363,36.621,0.488
31.25,-18.555,40.039,33.691,-2.93
28.32,-37.598,41.016,31.25,-3.906
33.203,-53.711,41.504,29.785,40.527
40.527,-15.137,42.48,24.902,37.109
37.598,38.574,53.711,29.785,37.109
30.762,7.324,54.688,35.645,53.223
26.367,-1.953,47.363,25.879,46.387
35.156,-71.289,34.18,23.926,-3.418
40.039,-36.621,39.062,21.973,15.137
35.156,83.984,45.898,24.902,25.391
31.25,29.785,38.086,24.902,-18.066
24.902,24.902,38.086,26.367,16.113
28.809,14.16,40.039,30.762,72.266
41.016,-20.996,42.48,28.809,61.523
39.551,81.543,57.617,29.297,9.766
38.574,106.445,59.57,37.109,29.297
24.414,60.547,52.246,37.109,48.828
19.531,12.207,47.363,28.32,70.801
37.598,19.043,44.434,25.391,66.895
37.109,85.938,53.711,27.832,26.855
32.715,94.727,57.617,34.18,71.289
36.133,52.734,50.781,34.668,87.402
39.551,-20.508,49.316,32.715,16.113
44.434,-39.551,47.852,24.414,16.113
45.41,60.059,52.246,18.066,14.16
43.945,128.906,63.965,27.832,21.484
39.062,74.707,59.57,33.691,0.488
33.691,13.672,53.711,18.066,-29.297
32.715,32.715,61.035,11.719,-3.906
36.133,99.121,59.57,18.555,-8.301
35.156,98.633,51.758,12.695,-13.184
29.297,79.59,50.293,15.625,27.344
25.391,43.457,42.969,22.461,35.156
23.926,20.508,41.016,19.531,-9.277
23.438,66.895,42.969,19.531,25.391
32.227,97.656,47.852,25.391,49.316
30.273,106.934,52.246,27.832,48.828
25.391,103.516,50.293,19.043,40.527
35.156,17.578,40.527,14.16,49.805
45.41,33.203,38.574,21.484,41.504
36.621,154.785,55.176,25.879,22.949
28.809,108.887,49.316,23.926,16.113
23.926,63.477,38.574,17.09,8.789
24.902,57.129,41.016,18.555,57.129
36.621,76.172,48.828,29.297,110.352
40.527,53.223,53.711,37.598,114.258
40.039,-61.035,49.805,44.922,76.172
31.738,-103.516,56.641,42.969,36.621
27.832,-147.461,53.223,41.504,65.918
38.574,-180.176,48.828,38.574,28.32
40.039,-100.098,68.848,34.18,-3.906
33.691,-123.535,70.312,36.621,20.508
24.902,-161.133,66.895,31.738,45.898
23.926,-202.637,61.035,25.879,81.543
38.574,-187.012,59.57,27.344,42.48
40.527,-106.934,65.43,28.32,32.227
35.156,-108.398,62.988,27.344,30.273
32.227,-98.633,65.918,27.344,24.902
33.203,-138.672,54.199,24.414,10.254
37.109,-95.215,55.664,16.113,18.555
41.992,9.766,64.941,21.973,45.898
41.016,-11.23,49.805,22.461,17.09
33.203,-38.574,42.969,20.508,-49.316
34.18,-55.664,43.457,20.996,-13.672
39.062,-90.332,37.598,17.09,42.48
38.574,1.953,47.852,17.578,-0.488
34.668,68.848,57.129,27.832,18.066
32.715,31.25,54.199,31.738,27.832
21.484,4.395,47.852,24.902,56.152
22.949,0.977,46.387,27.832,48.828
35.156,39.551,49.316,27.344,-19.043
31.738,62.5,56.152,31.738,7.812
25.391,65.918,57.129,33.691,-9.277
16.113,76.66,57.617,24.902,-11.23
20.02,-2.441,48.828,15.137,12.695
26.367,48.34,54.688,14.16,23.438
19.043,159.18,64.941,18.555,15.625
14.16,138.184,54.688,12.207,52.246
9.766,105.957,50.293,8.301,87.402
11.23,72.754,48.828,6.348,29.297
20.508,127.441,56.641,8.789,58.105
15.625,130.859,55.664,11.719,41.992
12.695,47.852,44.922,9.277,22.949
15.137,11.719,47.363,8.301,55.176
17.09,-21.484,48.34,3.906,72.754
28.32,-3.906,46.387,12.695,10.254
40.039,78.125,47.852,30.762,-5.371
18.066,63.477,47.363,15.137,37.598
-14.648,23.438,43.945,-10.254,-16.113
-8.789,-27.344,39.062,-7.324,-4.883
-5.371,-7.324,41.504,-5.371,-28.32
-10.254,76.172,50.781,-5.859,-31.25
-6.348,67.383,55.176,-1.465,10.742
-2.93,46.875,58.594,-0.977,60.547
-0.488,-41.016,44.922,0.488,95.703
5.371,-27.832,45.898,3.906,16.602
8.789,75.195,62.012,7.324,11.719
6.836,53.223,59.082,10.254,65.43
11.23,14.648,61.523,12.207,42.969
9.766,-53.711,57.617,7.324,-32.227
14.648,-109.863,49.805,3.906,-19.531
21.973,3.418,62.012,10.254,52.734
20.508,82.52,68.848,13.184,51.27
16.113,39.062,65.43,8.789,32.227
18.066,-8.789,61.523,11.719,22.461
24.414,0.488,62.988,12.207,54.688
27.832,37.598,64.453,17.09,73.73
26.367,20.996,58.594,17.578,66.406
22.461,8.301,59.082,14.16,53.223
13.672,6.348,62.988,13.184,12.207
17.09,-50.781,63.965,11.23,43.457
22.949,-9.277,65.43,14.648,19.531
24.414,104.492,75.684,23.926,20.02
22.461,64.453,68.359,21.973,10.254
20.996,4.883,58.105,21.484,-50.293
29.785,25.879,67.383,26.855,26.367
29.785,61.523,71.777,33.203,-4.395
27.832,51.758,69.824,34.668,-92.285
23.926,37.109,68.848,29.297,18.066
20.996,23.438,62.988,29.297,48.34
28.32,9.766,67.871,30.762,4.883
32.227,61.035,74.707,31.738,48.34
28.809,98.633,70.312,36.133,80.078
26.855,68.848,68.359,34.668,50.781
22.461,55.176,62.5,22.949,-17.578
19.531,-19.043,44.922,14.648,-6.836
23.926,18.555,49.805,16.602,9.766
31.25,164.551,70.312,19.531,64.453
34.18,132.812,63.965,21.973,75.684
24.902,105.957,58.594,20.02,21.484
25.879,32.227,58.105,18.066,51.27
33.691,41.016,61.035,19.531,29.297
28.32,190.43,70.801,15.137,67.383
25.879,186.035,62.012,10.254,103.027
26.855,135.742,53.711,18.066,26.367
22.949,87.402,44.434,12.695,33.203
30.762,112.793,49.805,16.113,41.016
40.039,183.105,65.918,32.715,69.336
31.25,162.598,57.617,25.391,85.449
22.949,132.812,43.457,16.602,65.918
21.484,62.5,34.668,19.531,13.184
20.508,70.801,35.645,14.16,27.344
23.438,109.375,34.18,14.648,35.156
22.461,101.074,32.227,14.648,5.859
14.16,128.418,42.969,9.277,16.602
10.742,83.984,35.156,14.16,12.695
21.973,21.973,29.297,13.672,50.781
25.391,120.117,44.434,16.113,73.242
22.949,155.762,47.363,18.555,4.395
27.344,120.117,48.34,16.113,-4.395
19.531,83.984,46.875,15.625,20.996
19.043,57.617,38.574,17.578,20.02
28.809,123.535,48.34,21.973,19.043
28.809,129.395,49.805,30.273,21.484
31.738,80.566,41.992,27.832,34.668
28.809,52.246,44.434,19.043,35.156
32.227,20.996,43.457,20.508,45.41
37.109,70.801,47.852,19.043,-5.859
26.367,144.043,49.316,22.461,-5.371
23.438,131.348,45.41,17.09,40.039
21.484,89.844,47.852,11.719,68.848
21.973,23.438,48.34,18.555,56.152
31.25,54.199,55.176,20.996,23.438
30.762,114.258,65.918,25.391,23.438
22.461,100.586,62.012,20.996,42.969
19.531,54.199,57.617,19.531,12.207
20.508,-53.223,45.41,14.648,-33.203
25.879,-6.348,55.664,16.113,-33.203
24.414,121.582,75.195,20.02,13.184
21.484,103.516,60.547,12.207,92.285
19.043,47.852,44.922,16.113,45.898
16.113,-34.18,41.504,15.137,-20.02
19.043,7.812,48.34,6.348,24.902
23.438,83.496,56.641,15.625,-23.438
21.973,64.453,54.688,13.672,-42.48
17.09,63.477,51.758,10.254,32.715
18.555,11.23,34.18,11.719,54.688
26.367,13.672,36.133,8.789,23.438
33.691,39.551,45.898,20.508,-2.93
35.645,44.922,43.945,27.344,-3.906
23.926,75.195,50.781,22.461,1.465
15.625,12.207,36.621,18.555,34.18
20.996,-5.371,28.32,13.184,-6.348
28.809,87.402,37.109,13.672,-21.484
28.809,73.73,40.039,15.625,-32.227
19.043,63.477,40.527,14.16,-5.859
14.648,15.625,27.832,16.113,76.66
18.066,-45.41,30.273,7.324,35.645
21.973,57.129,48.34,13.184,-18.066
21.973,87.891,44.922,28.809,-1.953
18.555,33.691,41.992,25.391,14.16
13.184,7.324,51.27,13.184,-2.93
17.09,-47.852,35.645,7.812,-0.977
21.973,24.902,31.25,6.348,27.344
22.949,104.98,49.805,7.812,-2.441
20.996,79.102,41.504,12.207,44.922
17.09,28.32,29.297,17.09,33.203
22.461,-8.301,32.715,9.766,-11.23
32.227,45.898,39.551,13.184,-12.207
27.344,72.754,43.457,20.996,9.766
17.578,24.902,38.086,12.695,44.922
15.137,-24.902,30.273,9.766,-0.977
11.23,-41.016,29.297,9.277,-7.812
14.16,4.395,32.227,5.859,18.066
16.602,58.594,39.062,13.184,-5.859
10.254,45.41,40.527,13.672,-1.465
7.324,14.648,28.809,9.277,-24.902
10.742,-74.707,15.625,10.254,-29.297
16.602,-43.457,20.02,15.137,33.691
18.555,65.918,36.621,20.508,74.219
16.113,41.504,37.109,21.484,68.359
16.113,7.812,20.996,21.484,46.387
12.695,-41.504,12.207,14.16,25.879
13.184,-29.785,17.578,12.207,-3.418
17.578,18.555,32.715,18.555,65.43
20.996,2.441,32.227,21.973,69.336
17.578,-15.625,19.043,14.648,-39.062
16.602,-52.734,13.672,3.418,-22.461
23.438,-44.922,30.762,6.836,20.996
17.578,79.102,46.875,7.324,52.734
12.207,80.078,29.785,6.348,61.523
10.742,42.969,25.391,2.93,33.691
4.883,-11.719,22.949,-2.441,40.527
9.277,-12.207,26.855,-2.93,41.992
22.949,42.48,35.645,0.488,-12.695
23.438,32.715,37.598,12.207,-45.898
5.859,9.766,29.297,3.418,25.879
3.906,-47.363,21.484,-1.465,-5.859
18.066,-73.73,27.832,0.977,0.488
22.949,-0.488,32.715,-2.441,-2.441
22.949,62.012,42.48,8.301,2.441
18.555,67.383,40.527,15.625,50.293
9.277,5.371,20.508,8.789,17.578
17.578,-14.648,18.555,16.602,21.484
31.25,44.922,31.738,29.785,6.836
23.438,47.852,35.156,23.926,-8.301
16.602,24.902,34.18,20.996,-38.086
13.184,5.859,35.156,11.23,18.555
12.695,-44.434,24.414,6.836,56.641
22.461,0.488,26.855,15.625,11.719
22.461,59.082,40.039,23.926,33.203
14.16,28.32,35.156,19.531,46.875
14.648,-4.883,21.484,14.648,30.273
14.16,-26.855,27.344,9.766,79.102
17.09,-1.953,33.203,8.789,92.773
23.438,40.527,35.156,19.043,38.086
19.043,30.273,33.691,23.926,-14.16
11.23,8.301,26.367,14.16,12.695
14.648,-26.367,21.973,6.836,78.613
24.414,-2.93,30.273,18.555,37.598
19.043,17.09,40.039,20.508,3.418
10.254,1.465,31.25,8.789,-10.742
7.324,46.875,35.645,6.348,27.832
10.742,-31.738,22.949,3.418,89.844
22.461,-82.52,8.301,-0.977,34.668
23.926,58.594,30.273,6.348,29.785
17.09,79.102,35.156,16.602,44.922
23.926,38.086,34.668,20.996,48.34
36.621,-18.555,25.391,34.668,58.105
30.762,-7.324,27.832,31.738,23.438
15.137,65.918,39.062,8.789,49.805
9.277,50.781,31.738,-0.488,49.805
4.395,5.371,26.855,-7.812,40.039
-1.953,-48.828,24.414,-16.602,69.336
-5.859,-5.859,29.785,-22.461,113.77
-2.441,63.477,37.109,-17.09,64.453
4.395,49.805,39.551,-0.488,-0.488
4.395,45.41,43.945,-2.93,73.242
5.371,-35.156,38.086,-8.301,30.273
5.859,-48.34,40.039,-5.859,12.695
12.695,32.715,50.781,2.441,43.457
13.184,40.039,48.828,3.418,33.203
9.766,24.902,41.504,3.906,12.207
11.719,-35.645,31.738,6.836,12.695
14.648,-57.129,25.879,7.324,9.277
28.809,50.293,45.898,13.184,16.113
29.297,89.355,47.363,17.578,64.941
20.996,57.129,39.551,15.625,67.383
19.531,38.574,45.41,14.648,67.871
22.461,-60.059,29.785,13.672,58.594
24.414,-18.555,20.508,0.977,7.324
30.762,103.027,30.762,5.859,-9.766
31.25,85.449,29.785,16.113,46.875
19.531,37.109,22.461,10.742,40.039
17.09,-12.207,15.137,9.277,-42.969
28.809,36.621,30.273,11.719,-31.738
35.645,54.688,30.762,19.043,17.578
33.203,31.738,18.555,26.367,28.809
30.273,24.414,23.926,24.902,0.977
17.09,10.254,22.949,11.23,-19.531
20.02,59.57,23.438,7.812,31.738
21.484,93.75,24.902,11.23,40.039
9.766,66.406,20.996,6.348,7.324
9.277,54.688,19.531,5.371,17.578
13.672,-46.875,10.254,8.301,-15.137
15.137,-43.457,13.672,1.953,-27.344
17.578,83.984,34.18,-1.953,12.695
25.391,77.148,36.621,9.766,23.438
19.043,33.691,21.973,11.719,45.898
13.672,-25.391,5.859,3.418,26.855
21.973,20.996,17.09,6.836,30.273
30.273,87.891,32.715,17.578,33.203
27.832,52.734,26.367,19.043,-17.09
23.926,70.312,29.785,19.043,20.996
20.508,-4.883,25.879,20.02,9.766
24.902,-44.922,22.461,9.277,-10.742
34.18,78.125,31.738,5.859,29.785
23.438,94.238,29.297,13.184,64.453
15.137,59.082,21.973,17.578,15.625
18.555,5.859,21.973,20.508,-32.227
23.926,-8.789,27.832,14.648,53.711
26.367,57.129,26.367,8.789,99.609
27.344,77.148,36.133,13.672,20.02
22.461,84.473,35.645,11.23,1.465
11.23,44.434,18.066,7.812,51.758
13.184,-38.574,19.043,8.301,33.203
18.555,37.109,35.645,7.324,58.594
19.043,100.098,42.969,12.695,67.383
19.531,106.445,40.039,16.113,89.355
13.184,52.246,21.973,10.254,66.406
15.625,-3.418,17.578,10.254,-4.395
26.367,58.594,26.855,18.066,17.578
29.785,64.453,23.926,16.602,55.176
34.668,45.898,30.762,20.02,43.945
36.133,39.062,39.062,22.461,15.625
34.18,-48.34,17.578,6.836,2.93
37.598,2.441,10.742,2.93,9.766
33.691,104.98,25.879,19.043,0
27.832,77.148,23.926,19.043,-7.324
19.531,59.57,16.113,18.555,20.02
18.555,12.207,14.16,19.043,-14.648
27.832,35.645,24.902,20.02,-40.039
32.715,121.094,31.25,25.879,-24.414
24.414,113.281,23.926,23.438,-25.391
24.902,68.848,24.414,24.902,20.02
29.297,-9.277,14.648,21.484,36.621
31.738,19.043,20.508,14.648,43.945
27.344,125,27.344,19.043,34.18
18.066,111.816,18.066,15.625,41.016
22.949,66.895,20.02,19.531,35.156
25.879,7.324,19.531,23.926,12.695
24.902,19.531,30.273,18.555,21.973
29.785,78.125,36.133,22.461,20.996
30.273,73.242,23.926,20.996,45.898
26.367,48.34,19.531,20.508,21.973
23.438,-6.348,17.09,23.438,12.695
24.414,-23.438,22.949,22.949,37.598
28.809,28.32,32.715,24.902,-6.836
29.297,49.316,34.668,22.461,-39.551
24.414,59.082,34.668,19.531,-33.691
28.32,-5.859,23.438,23.926,-12.207
31.738,-80.566,19.043,23.438,-79.102
33.203,49.805,43.945,25.879,-19.531
41.992,104.492,41.992,36.621,66.406
37.598,60.059,29.785,31.738,28.809
29.297,-5.371,18.066,22.461,27.832
32.227,-27.344,21.484,20.508,28.32
43.945,36.621,31.25,21.973,13.672
52.734,27.344,33.203,30.273,25.391
40.527,44.434,35.645,28.32,122.07
31.738,9.766,21.973,22.461,107.422
34.668,-20.508,22.461,18.066,69.336
43.457,39.062,31.25,18.066,29.785
44.434,56.641,35.156,28.809,-20.02
38.086,55.664,40.039,29.785,6.836
26.855,14.648,22.461,16.113,36.133
20.02,-31.738,16.113,8.301,44.434
31.738,18.066,31.25,14.648,27.344
39.062,63.477,36.133,22.461,34.18
36.133,41.016,33.203,23.926,30.273
31.738,0.977,28.809,19.531,21.973
31.738,-74.707,21.484,15.137,34.668
36.621,-63.965,20.508,16.113,25.391
44.922,67.871,35.156,23.926,26.855
40.527,77.637,37.598,30.273,32.715
33.203,39.062,33.691,27.344,4.883
31.25,-1.465,25.391,25.391,-2.93
26.367,6.836,25.391,22.461,-6.836
30.762,49.805,24.902,18.555,18.066
30.273,45.41,21.484,20.996,-20.02
21.484,49.805,23.926,24.902,-0.977
19.043,-0.977,25.391,28.809,28.809
29.297,-27.832,26.367,24.902,-28.32
37.109,43.945,30.762,27.832,6.348
36.133,76.66,38.574,33.203,-0.977
33.691,83.008,41.504,33.203,8.789
24.902,-15.137,24.414,25.391,43.457
16.602,-52.246,11.23,8.301,43.457
29.785,75.684,21.484,18.066,79.59
31.738,67.871,27.832,27.832,41.504
20.02,47.852,24.414,19.531,-5.371
20.02,0.488,18.555,18.066,-1.465
21.484,-16.113,23.438,14.648,-18.066
29.785,61.035,24.902,15.625,5.371
29.785,55.176,16.113,21.484,62.988
20.508,35.645,18.555,20.996,35.645
12.695,16.602,14.16,19.531,30.273
16.602,-58.594,15.137,20.996,32.715
32.227,28.809,25.391,22.949,53.711
34.668,84.473,29.785,26.367,40.527
27.832,41.504,31.25,23.438,-30.273
30.762,9.277,25.879,30.273,-23.438
24.902,-18.555,21.484,27.832,47.852
23.438,12.695,26.367,20.996,58.594
24.902,42.969,24.414,32.715,1.465
23.438,47.852,26.367,28.32,15.625
22.461,3.418,22.949,18.066,46.387
17.578,-70.312,14.648,16.602,65.918
23.438,-2.93,32.227,22.949,66.895
30.273,86.914,41.504,28.809,13.672
28.32,68.848,26.367,26.855,-6.836
24.414,47.852,20.508,23.438,66.406
20.02,-2.441,13.672,15.625,103.516
25.879,4.395,16.113,15.625,10.254
30.762,48.828,20.508,22.461,3.418
33.203,51.27,19.043,33.691,34.18
25.391,41.992,22.461,32.715,52.246
13.184,-19.531,19.043,22.461,86.426
21.973,-32.227,14.16,21.973,41.016
27.832,41.992,26.367,22.949,29.785
20.508,74.707,40.527,24.902,55.664
24.902,55.176,29.297,27.344,27.344
24.414,-18.066,20.02,23.438,14.16
29.785,-8.789,26.367,28.809,48.34
41.992,65.43,34.668,23.926,57.129
36.621,70.312,32.715,21.973,56.641
36.621,58.594,29.297,29.785,70.801
33.691,-4.395,21.484,20.996,96.191
27.832,-12.207,20.02,13.184,56.152
31.25,65.918,30.273,24.902,39.062
34.18,37.109,27.344,32.715,56.641
30.273,19.531,27.832,31.738,0.488
24.902,-0.977,24.902,31.738,-17.09
22.949,-81.543,28.32,23.438,-14.648
25.879,26.855,43.945,17.09,26.855
27.832,125.977,36.621,18.555,49.805
29.297,82.031,29.297,22.461,21.973
24.902,20.02,24.902,22.461,41.016
25.391,-9.277,22.949,17.09,28.32
34.18,36.133,29.297,19.043,-50.293
34.668,62.988,37.598,27.344,7.324
29.785,47.852,38.574,30.762,35.645
23.438,-15.137,31.738,20.508,-3.418
19.531,-62.012,30.273,4.395,39.062
24.902,31.738,35.645,3.418,74.219
29.297,95.215,43.945,13.184,44.434
27.344,48.828,40.039,19.043,0
21.973,7.812,34.18,22.949,17.578
18.555,-15.137,29.297,11.23,-26.855
29.297,27.344,20.996,12.207,-27.832
34.668,67.871,39.062,23.438,46.387
33.691,60.547,49.805,26.367,42.48
26.855,29.785,27.832,20.02,-20.508
20.02,-11.23,24.902,14.16,-14.16
31.25,-13.672,32.715,24.902,30.273
36.133,31.25,29.785,28.32,20.508
31.25,57.129,26.367,22.461,3.906
26.855,48.828,28.809,20.996,-15.137
31.25,-46.387,29.297,22.949,0.488
36.621,-39.551,35.645,20.02,10.742
28.809,77.637,34.668,9.766,3.906
28.32,69.824,32.715,15.137,43.945
20.02,57.129,28.32,14.648,44.434
12.207,21.484,20.996,12.695,34.668
25.391,12.207,26.367,13.672,29.785
35.645,62.5,40.039,19.531,34.18
28.809,55.664,41.016,20.996,56.641
21.973,41.504,36.133,23.438,48.828
33.203,-22.949,30.273,36.621,6.836
29.785,-44.922,18.066,18.555,-0.488
12.695,80.078,25.391,-1.953,24.902
16.602,100.098,29.297,11.719,29.785
25.391,70.801,29.785,25.391,8.301
25.391,30.762,26.367,18.555,22.461
19.531,20.02,20.508,6.836,29.785
28.809,47.852,22.949,8.301,15.625
25.391,66.406,32.227,8.301,49.316
17.578,67.383,18.555,9.277,-2.93
24.414,-12.207,12.207,15.625,-41.992
18.555,-16.113,20.996,8.301,16.113
21.484,68.359,24.902,13.672,50.293
31.25,83.496,29.297,24.414,51.27
29.785,79.102,36.621,26.367,31.738
30.273,32.227,35.156,23.438,65.43
20.508,-26.367,40.039,8.789,36.133
17.578,34.18,36.621,5.859,-1.465
31.25,68.848,29.785,15.137,19.043
32.227,65.43,34.668,16.113,28.32
18.066,37.598,31.738,16.602,27.344
12.207,-41.016,19.531,7.812,54.199
21.973,-12.207,22.461,4.883,29.785
34.668,52.246,34.668,23.926,-13.672
27.832,53.711,27.832,14.648,-29.297
22.461,73.73,24.902,5.371,-6.348
24.902,-15.137,22.461,11.23,20.996
16.602,1.465,21.973,1.465,34.18
28.32,111.816,33.691,7.324,30.762
43.457,100.098,37.598,23.438,11.23
35.645,76.66,28.809,22.949,46.875
22.949,17.578,16.113,10.742,25.879
27.832,23.438,20.996,8.301,-8.789
39.551,72.754,33.203,20.02,19.043
32.715,48.828,25.879,22.461,64.941
21.973,48.828,16.602,17.09,71.289
21.973,-12.207,13.672,19.043,34.668
21.973,-16.113,19.043,19.531,14.648
25.879,94.727,31.738,20.996,58.105
28.809,80.566,27.344,27.344,30.273
25.391,63.477,24.902,30.273,-14.16
18.555,6.836,22.949,24.902,44.922
16.113,-7.324,20.996,20.508,54.688
23.438,57.129,25.879,23.926,-14.648
25.391,69.336,29.785,26.855,-24.902
27.344,74.707,31.738,24.902,10.742
24.902,-1.465,18.066,20.996,26.367
21.484,-20.996,22.949,20.02,3.906
21.484,66.406,37.598,15.625,25.391
11.719,77.148,32.227,11.23,41.992
15.625,67.871,38.574,20.996,17.578
20.02,0.488,28.809,23.438,28.809
13.672,-41.992,12.695,7.324,7.812
28.32,64.453,27.344,11.23,18.555
33.691,113.281,32.715,18.555,72.266
30.273,84.961,31.25,20.508,23.438
36.133,44.922,36.133,30.273,27.344
35.156,9.277,31.25,22.949,51.27
22.949,28.809,20.02,-2.93,16.113
23.926,68.359,31.738,-2.441,22.949
28.32,104.492,41.992,7.324,41.016
13.672,78.613,34.18,6.836,64.941
12.207,-26.367,19.531,0,40.039
19.043,28.809,24.414,-2.441,28.809
21.484,130.859,34.18,5.859,52.734
19.043,89.355,23.926,0.977,24.414
20.02,44.922,18.066,0,-12.207
16.113,39.062,23.926,-2.93,10.742
23.926,68.359,30.762,0.488,56.641
34.18,95.703,26.367,9.766,53.711
23.926,69.336,24.902,5.859,29.785
20.508,57.617,30.273,12.207,32.715
18.555,-20.996,20.996,8.789,-22.949
24.414,3.418,24.414,3.418,-47.852
34.18,125,40.527,7.324,-4.883
29.785,114.258,40.039,12.695,-8.789
28.809,86.914,32.715,18.555,30.762
30.273,36.133,26.855,15.137,2.441
28.809,37.598,23.438,10.254,-2.93
33.691,79.59,26.855,12.207,34.18
34.668,76.172,26.367,20.996,5.859
31.738,90.332,29.297,22.461,26.855
29.785,4.395,22.461,18.066,42.969
31.738,-22.461,17.09,11.719,17.578
41.992,106.445,39.062,19.531,35.645
42.969,135.254,38.574,25.391,61.523
34.18,108.398,36.133,23.438,1.953
29.785,59.57,31.25,20.02,-26.855
25.391,44.434,24.902,10.742,6.348
31.738,91.797,25.391,13.184,14.16
39.551,125,28.809,13.672,41.504
37.109,113.281,33.691,18.555,39.551
31.25,63.965,20.996,20.996,34.668
22.949,35.645,20.02,5.371,37.598
30.762,46.875,28.32,8.301,9.766
39.062,68.848,26.367,19.043,11.23
31.25,104.004,34.18,22.461,36.621
31.738,83.008,30.273,22.949,29.785
28.809,15.625,16.602,13.184,84.473
32.715,78.613,29.297,16.602,85.938
42.48,128.418,42.969,27.832,16.113
35.156,118.652,44.434,26.367,29.297
29.297,73.242,35.156,24.414,63.477
24.414,15.625,21.484,19.043,39.551
21.973,61.523,26.367,14.648,55.176
29.297,99.609,41.016,24.414,118.652
26.367,64.453,36.621,28.32,106.934
18.066,13.672,21.973,17.09,0.977
15.625,-5.371,23.438,15.625,32.227
18.555,19.531,31.738,23.926,54.688
20.996,88.379,39.551,22.461,21.973
20.508,108.398,40.039,26.367,66.406
24.414,70.312,27.832,28.32,35.645
20.508,29.297,21.484,20.996,34.18
23.438,46.387,32.715,23.438,48.34
35.645,80.566,37.598,32.227,19.043
36.133,83.008,30.273,32.227,-2.93
29.785,70.312,29.297,29.297,21.484
18.066,-1.953,26.367,22.949,46.875
21.484,-15.137,25.391,16.113,3.418
34.18,58.105,42.969,20.996,-15.625
32.715,78.125,46.387,24.902,34.18
27.832,64.453,41.504,24.414,42.969
25.391,-33.691,27.344,22.461,-7.812
24.902,-76.172,22.949,13.672,24.902
25.391,51.27,43.457,15.625,52.734
29.785,75.684,41.016,33.691,0.977
29.785,68.848,40.527,36.133,44.922
23.438,28.809,35.156,26.855,54.199
18.066,-11.719,25.391,20.996,-24.902
24.902,-0.977,22.461,19.531,-12.695
27.832,22.461,25.879,22.949,9.766
18.555,59.57,29.785,20.508,35.645
34.668,-7.812,9.277,29.297,19.531
54.688,-47.363,15.625,50.293,2.93
32.227,-1.953,32.715,31.25,-13.184
11.719,22.949,42.969,13.672,1.953
6.836,9.277,47.363,13.184,50.781
10.254,-62.012,18.066,19.043,22.949
0.977,-75.684,16.602,12.207,5.371
-4.395,-18.066,34.18,5.371,53.711
2.93,0.977,37.598,13.672,69.824
-3.418,-34.668,36.621,9.766,14.648
3.418,-46.387,33.691,6.348,5.859
10.254,-101.562,31.25,6.348,62.988
7.812,-75.195,31.25,1.953,36.133
8.789,48.34,41.016,14.648,5.371
12.207,55.664,42.48,26.367,14.16
5.859,12.207,36.621,26.367,40.039
9.766,-37.109,40.527,28.32,38.086
10.742,-20.02,39.551,17.578,46.875
23.438,3.418,35.645,26.367,48.34
29.297,8.789,36.133,31.738,12.207
21.973,17.09,31.738,25.391,59.57
21.973,-42.969,34.668,29.297,65.918
21.484,-55.664,34.18,24.414,-23.438
26.855,17.09,26.855,21.484,-10.742
29.297,32.715,32.227,30.762,11.23
18.066,28.32,42.969,29.785,-6.836
9.277,-51.758,39.062,18.066,31.738
12.207,-64.941,37.109,16.113,24.414
15.625,37.598,44.922,20.02,67.383
17.09,40.039,39.551,25.391,49.316
18.555,24.902,39.551,25.391,15.137
13.184,-6.348,33.203,14.16,31.738
8.301,-19.043,22.949,9.277,42.48
16.602,-20.508,20.996,19.531,59.082
19.043,-27.344,29.785,27.344,-6.836
17.09,13.672,29.297,23.438,-23.438
21.484,-15.137,22.949,24.902,-25.391
17.09,-30.273,23.926,20.996,-7.812
12.207,24.902,24.902,19.043,46.387
19.531,30.273,33.203,29.785,13.184
24.414,52.246,42.48,31.738,44.922
19.531,-17.09,18.066,30.762,70.801
15.625,-75.684,18.066,24.902,43.945
19.043,28.809,47.852,18.066,53.711
18.066,50.781,34.668,21.484,67.871
19.043,2.93,19.531,23.438,7.812
20.508,-24.414,22.949,25.391,34.668
16.113,-63.477,21.973,20.996,54.199
25.391,-3.418,33.691,15.137,6.836
32.715,62.988,36.133,18.066,12.695
30.273,65.918,30.762,18.066,14.16
31.738,19.043,42.48,22.949,-3.906
22.949,-23.926,38.574,21.484,18.555
17.578,-1.953,30.273,16.602,4.883
29.785,25.879,36.621,20.02,-1.465
27.832,31.738,36.621,21.484,-42.969
25.391,13.184,33.203,22.461,-11.719
22.949,-39.551,23.926,22.461,68.359
19.531,-34.668,26.855,20.02,17.578
30.273,39.062,38.574,16.602,39.551
32.715,60.547,42.969,26.367,84.473
26.367,30.762,33.691,32.715,76.66
18.066,-41.504,20.02,21.973,23.438
18.066,-22.461,16.602,18.555,41.992
30.762,54.199,20.508,20.508,91.797
28.809,61.523,21.973,22.461,84.961
19.043,32.715,21.973,28.809,66.406
21.973,-24.414,18.555,32.227,-20.02
23.438,-24.902,20.996,25.879,-72.754
32.715,18.555,28.32,29.297,37.109
34.668,25.391,32.227,34.18,62.5
21.973,22.949,30.273,28.32,-29.297
21.973,-33.203,20.996,17.09,-28.32
17.09,-78.613,17.578,9.766,-6.348
20.508,42.969,31.738,19.531,-20.996
27.344,108.887,35.156,22.949,-14.648
21.484,72.754,35.645,20.996,-9.277
20.508,25.879,30.762,24.902,3.418
13.672,14.648,29.297,20.508,17.578
17.09,44.434,34.18,18.555,20.02
27.832,45.898,29.297,20.508,-2.93
24.902,39.551,35.645,20.996,17.09
18.555,-9.277,24.902,22.461,46.875
17.09,-38.574,22.461,18.066,29.297
23.438,56.641,32.715,23.438,34.668
34.668,92.285,21.973,28.809,67.383
25.391,75.195,25.879,28.32,68.359
37.598,17.578,34.18,51.758,26.855
49.805,-7.324,26.855,56.641,25.879
35.156,20.02,28.32,31.738,27.832
31.25,44.922,30.273,23.438,23.926
27.832,49.805,15.625,18.066,77.148
24.902,12.207,16.113,17.578,99.121
22.949,-12.695,12.695,10.254,18.555
24.902,15.137,3.906,-4.883,-32.227
32.715,91.309,12.695,-4.395,14.648
32.715,133.789,15.625,-4.883,42.969
33.203,102.051,5.371,-2.441,34.18
22.949,54.199,-7.324,-11.23,31.738
13.184,80.566,-3.418,-26.367,21.973
33.691,116.211,6.836,-9.766,-8.789
42.969,144.531,9.277,0.977,38.086
35.156,132.324,-3.906,-17.578,66.895
32.715,55.176,-8.301,-28.809,3.906
42.48,72.266,-6.348,-18.555,-10.742
50.293,123.535,-5.859,-7.812,-46.387
46.387,152.344,11.23,-5.859,29.785
49.316,169.922,15.137,2.441,53.711
46.387,93.262,-2.93,-13.184,17.09
50.293,77.637,-8.789,-14.648,-0.488
54.199,181.641,5.859,4.883,14.16
62.5,194.336,8.301,10.742,24.902
66.406,177.734,8.789,17.09,41.016
64.453,151.367,11.23,24.902,134.277
63.965,109.375,5.859,26.367,83.496
68.359,113.281,9.277,24.902,-13.184
70.801,143.555,19.043,23.438,-9.766
63.477,124.023,16.602,19.531,4.395
56.641,77.148,1.953,13.672,-17.09
54.688,94.238,12.207,15.625,3.418
66.406,115.723,18.555,25.391,3.418
68.848,121.582,10.254,31.25,-10.254
62.5,145.508,12.695,28.809,7.812
56.641,93.262,16.113,31.25,6.836
49.805,67.871,17.09,28.32,-11.719
55.664,107.422,17.578,19.531,3.418
66.406,121.094,18.555,24.414,-0.488
55.176,129.883,17.578,26.855,1.465
57.617,82.031,13.672,28.809,76.172
62.012,9.277,12.695,22.461,124.023
57.129,57.617,18.555,15.137,52.734
61.035,118.652,21.484,20.996,25.391
54.199,131.348,25.879,28.809,82.031
54.688,62.012,22.949,36.133,63.965
56.641,-15.625,20.508,35.156,-41.992
48.34,41.016,17.09,34.18,-22.949
52.734,93.262,18.555,37.598,21.973
54.688,108.398,23.926,42.48,8.301
51.758,71.777,21.484,42.48,34.668
46.875,25.879,17.578,33.691,14.16
43.457,37.598,19.043,26.855,-0.977
54.199,46.875,22.949,36.621,59.082
50.781,65.918,29.785,36.621,56.641
43.457,77.637,28.32,31.738,23.926
37.109,-19.531,13.184,28.32,-17.09
25.391,-9.277,16.602,14.16,-39.551
37.109,104.004,34.668,17.09,37.598
37.109,108.398,30.762,26.367,60.059
31.738,84.961,27.832,23.926,51.758
35.645,28.32,26.855,18.555,50.293
28.32,13.672,18.555,10.742,6.836
31.738,79.59,23.438,13.184,39.062
40.527,93.75,26.367,25.879,55.176
40.039,30.762,23.438,26.855,-9.277
34.668,15.625,30.273,24.414,21.973
28.809,25.879,32.715,24.414,52.246
27.832,48.828,31.738,23.926,38.086
33.691,74.707,23.438,26.367,27.344
37.109,71.777,16.602,35.645,-16.602
33.691,-3.418,16.113,39.551,-15.625
28.809,-43.945,15.137,31.738,-12.207
31.738,60.547,32.227,32.227,17.578
43.457,92.285,38.086,37.598,57.129
40.039,69.336,23.438,43.457,47.363
30.273,22.461,16.113,37.598,60.547
25.391,-18.555,13.184,25.879,49.805
31.25,16.602,17.09,27.344,33.203
34.668,61.523,21.484,23.926,5.859
33.691,76.172,24.902,17.09,-3.418
40.527,15.137,20.508,30.762,16.602
34.668,-50.293,16.602,22.949,-15.137
33.691,32.715,36.133,18.066,-33.203
40.039,88.379,33.691,30.273,25.879
34.668,85.449,24.902,23.438,48.828
33.203,36.621,24.414,20.508,51.27
28.809,8.301,22.461,18.066,52.246
32.715,17.09,29.297,24.902,2.93
41.016,19.043,32.715,29.297,-14.16
35.645,56.641,25.391,20.508,57.129
32.715,31.738,25.391,24.902,55.664
29.297,-38.086,21.484,23.926,0
31.738,25.391,29.297,16.602,63.477
38.574,94.238,38.574,21.484,134.277
41.016,77.637,28.809,36.621,106.445
53.711,42.969,28.32,52.734,49.805
36.621,15.137,13.672,36.621,34.668
18.066,6.836,10.742,27.344,-0.977
31.25,30.762,30.273,26.855,41.504
38.574,35.645,31.25,33.691,48.828
44.434,-2.93,31.25,48.34,3.418
46.387,-58.105,25.879,39.551,26.367
42.969,-42.48,24.902,39.551,-5.371
48.828,30.762,33.691,41.992,-37.598
52.246,41.504,33.691,43.945,-22.949
45.41,55.176,23.438,41.504,39.551
43.945,18.066,11.23,29.297,38.086
39.062,-6.836,11.719,23.926,9.277
40.039,19.531,18.066,30.762,30.273
45.898,55.176,26.855,33.203,51.758
44.434,47.363,28.809,27.832,11.719
40.039,10.742,33.203,33.203,-7.324
33.691,-34.18,24.902,29.297,-18.555
33.203,-25.879,14.16,18.066,-16.602
32.715,35.156,27.344,22.461,23.438
34.668,84.961,35.156,30.762,46.387
37.109,0.977,27.344,31.25,56.152
28.32,-68.359,22.461,29.297,15.625
28.809,-1.465,33.203,34.668,-51.758
36.133,50.781,39.551,35.156,-11.23
35.156,46.875,35.645,31.738,-28.809
34.18,22.949,28.32,35.645,9.277
32.227,7.324,20.996,36.133,25.879
36.133,2.93,21.973,36.133,-19.531
41.504,21.973,30.762,38.574,85.449
38.086,51.758,38.086,41.016,100.098
37.109,14.648,26.855,41.504,14.16
36.621,-1.953,18.066,38.086,30.762
31.738,34.668,24.414,36.621,56.641
34.18,33.691,28.32,36.621,30.273
37.598,49.805,25.879,38.086,19.043
33.691,10.254,10.254,34.18,36.621
26.367,-63.965,4.395,12.207,5.859
28.809,-21.973,19.043,10.254,4.883
42.48,55.664,28.32,25.879,52.734
47.363,66.895,33.691,39.062,34.18
41.992,23.438,31.25,36.621,13.672
37.109,-43.945,19.043,20.508,0.488
