TP9,AF7,AF8,TP10,Right AUX
-6.348,51.758,-24.414,4.395,-9.277
-12.207,55.664,-65.918,3.906,-27.832
1.953,49.805,61.523,8.789,11.719
20.508,54.688,159.18,19.531,67.871
24.902,59.57,117.188,26.855,72.754
24.902,60.547,-26.855,28.809,71.777
19.043,60.059,-60.059,24.902,5.859
28.809,61.523,98.633,21.973,-5.371
40.527,62.988,152.832,24.902,72.266
31.738,58.594,135.254,25.879,89.355
24.414,57.617,36.133,22.461,69.336
12.207,58.105,-58.105,19.531,55.664
14.648,58.105,31.738,21.484,28.809
29.297,58.105,97.168,19.043,49.316
30.273,58.594,112.305,15.137,15.625
20.508,59.57,60.059,13.672,-21.973
3.418,55.176,-49.805,11.719,38.086
-5.859,51.27,11.23,13.672,60.059
7.324,50.293,97.656,12.695,22.949
21.973,53.223,150.879,11.23,34.18
13.184,54.199,108.398,5.371,54.688
-5.371,50.293,-45.898,-2.93,-24.414
-14.648,50.293,15.137,-8.301,-23.926
-3.418,54.199,104.004,-10.742,66.895
1.953,48.828,128.418,-9.277,38.086
-9.277,46.875,91.309,-12.207,-13.672
-20.02,50.781,-44.434,-9.277,23.926
-22.461,46.875,0,-6.348,53.223
-3.906,43.945,89.844,-6.348,45.898
9.277,46.387,75.684,-5.859,23.438
10.742,46.875,100.098,-5.371,13.184
2.93,45.898,42.969,-2.93,38.574
-6.348,49.316,-0.488,-1.465,59.57
4.883,51.27,40.527,-3.906,-8.301
23.438,50.293,166.016,-2.441,11.23
23.926,49.805,133.789,-3.418,15.137
14.648,49.316,-47.363,-5.859,-46.387
12.695,49.805,-38.574,-11.23,-0.488
12.207,47.363,66.406,-14.16,14.16
10.742,45.898,154.785,-8.301,55.176
10.254,46.875,97.656,-7.324,58.594
2.441,43.945,-83.008,-15.137,-10.254
-8.789,42.969,-69.336,-22.461,17.578
-10.254,43.457,47.852,-20.996,19.043
-0.977,39.062,137.207,-20.996,50.781
8.301,41.016,98.145,-17.578,71.289
-2.93,42.48,-50.781,-16.113,25.391
-13.672,41.504,-93.75,-20.02,24.902
-0.977,41.992,6.348,-18.555,-55.664
3.418,32.227,125,-19.531,-54.688
2.441,29.785,123.535,-14.648,65.43
-2.93,35.156,-15.625,-20.02,95.703
-16.602,35.156,-104.492,-37.109,45.41
-19.043,33.203,1.465,-37.109,4.883
-7.812,32.715,99.609,-26.855,29.785
-3.418,33.691,85.449,-23.926,-6.348
-12.207,36.621,17.09,-27.344,-9.277
-27.832,39.062,-81.543,-31.738,12.695
-22.949,39.551,20.02,-35.645,53.223
-4.395,33.691,88.379,-32.715,15.137
-3.906,30.762,109.375,-24.902,-53.711
-17.578,30.762,72.266,-23.926,5.371
-23.438,33.203,-30.273,-25.879,68.359
-23.438,34.18,16.602,-23.926,74.219
-17.578,31.25,105.957,-25.879,48.34
-13.184,27.344,131.348,-29.297,35.156
-28.32,18.555,72.754,-36.621,-8.301
-49.316,6.348,-28.32,-47.852,30.273
-53.223,-1.953,5.371,-49.805,38.574
-47.852,-6.348,117.676,-55.664,26.367
-36.621,-3.418,151.367,-57.617,22.461
-34.18,1.465,104.492,-54.688,14.16
-50.293,3.906,-18.555,-56.641,-33.691
-59.082,2.93,23.438,-57.617,-2.441
-46.387,-1.465,146.973,-48.34,57.129
-28.809,-0.977,152.344,-38.574,34.668
-29.785,4.395,130.859,-37.598,13.184
-47.363,10.254,37.598,-38.086,-6.836
-55.664,8.789,18.066,-40.527,6.348
-44.434,9.766,154.297,-35.645,14.648
-29.785,15.137,181.641,-27.832,36.133
-34.18,12.207,163.574,-26.855,63.965
-45.41,10.254,104.492,-28.32,47.363
-48.828,15.625,32.227,-31.25,-35.156
-47.852,18.066,163.086,-35.645,-34.18
-31.738,20.02,269.531,-28.32,71.777
-25.879,20.508,211.426,-19.043,62.988
-40.527,26.367,72.754,-17.09,12.695
-38.086,31.25,68.848,-17.09,20.02
-22.949,29.297,194.336,-8.789,61.523
-8.301,29.297,259.277,-5.371,30.273
4.395,33.203,259.277,-5.859,62.012
-0.977,31.738,121.094,1.953,65.918
-14.648,32.227,72.754,-2.93,26.367
-9.277,36.621,181.641,-9.277,24.902
2.93,38.574,257.812,-5.859,52.734
11.719,39.551,251.465,-3.906,89.844
6.836,39.551,152.344,2.441,34.18
-9.277,42.48,81.055,1.465,-10.254
-13.184,41.504,174.316,-8.301,-12.695
5.859,42.969,254.395,-5.371,45.41
14.648,46.387,248.535,-1.953,62.988
3.906,50.781,199.707,-1.465,28.32
-7.812,55.664,101.562,0.488,36.133
-8.789,57.617,169.922,0.977,27.832
-1.953,53.711,267.09,3.906,28.809
1.465,57.129,226.562,4.883,61.523
3.906,65.918,206.543,5.859,21.484
-8.301,65.918,156.25,5.859,-5.859
-12.695,64.453,177.246,0.488,51.758
1.953,62.988,257.812,-0.977,110.352
7.324,61.523,260.254,8.789,50.293
1.465,57.129,226.562,9.277,5.859
-4.883,57.617,101.562,4.395,3.906
-5.859,60.547,127.441,5.859,-6.348
1.465,58.594,259.277,9.277,15.137
18.066,60.059,236.328,13.672,25.879
21.973,58.594,156.738,17.578,63.965
15.625,55.176,166.992,15.137,53.223
6.836,54.688,156.25,9.766,-10.254
13.672,54.688,199.707,7.324,-8.789
26.367,56.152,290.039,4.883,19.043
20.02,54.688,235.84,5.371,-10.742
6.348,55.664,90.82,1.953,-33.203
-9.766,56.152,85.449,-2.93,-11.23
-5.371,53.223,167.969,0.488,31.25
3.906,51.27,267.578,-2.441,39.551
1.953,49.805,268.066,-4.883,53.223
-10.742,52.734,91.797,-8.789,64.941
-19.043,55.176,49.805,-13.184,32.227
-15.625,51.758,163.574,-16.602,46.387
-13.184,50.781,226.562,-22.461,58.105
-5.859,54.688,224.121,-15.625,18.555
-10.742,48.828,115.723,-13.184,40.039
-21.484,43.457,28.809,-18.555,85.938
-8.301,46.875,128.906,-17.09,46.387
6.348,46.875,197.266,-14.648,16.113
10.254,49.316,180.664,-15.137,36.133
7.812,51.27,109.863,-15.625,66.406
-11.23,47.363,22.461,-17.578,25.879
-17.578,40.039,144.531,-19.531,73.73
-2.441,37.598,193.848,-15.137,93.75
0.977,41.016,183.105,-10.254,-29.785
-13.672,42.969,137.695,-15.137,2.441
-22.949,41.504,15.625,-20.996,37.109
-20.508,41.016,87.402,-20.508,12.695
-14.648,42.969,120.605,-14.16,24.902
-13.184,41.992,133.301,-14.648,9.766
-20.02,39.551,132.324,-21.484,27.344
-29.297,35.645,-29.297,-26.855,56.641
-33.203,30.273,33.691,-26.367,25.391
-24.902,29.785,155.762,-22.461,-12.695
-16.602,33.691,115.723,-24.414,-1.953
-15.137,32.715,103.516,-28.32,2.441
-31.25,28.809,67.383,-35.645,-25.391
-39.062,29.785,61.523,-40.039,-6.348
-12.207,31.25,113.281,-36.133,0
1.953,31.738,128.906,-30.762,22.461
-8.789,33.691,127.93,-23.438,15.625
-14.16,39.551,20.508,-17.09,0
-19.531,39.551,11.23,-18.555,40.527
-8.789,36.133,87.402,-13.672,50.781
0.488,39.062,125,-10.254,49.805
-6.836,39.551,119.629,-12.207,68.359
-17.578,36.133,52.734,-13.184,70.801
-21.484,37.109,26.367,-20.02,15.625
-8.301,40.527,118.164,-19.531,-5.859
7.812,39.062,189.453,-13.184,23.438
7.812,39.062,156.738,-11.719,45.898
-7.324,39.062,27.832,-13.184,99.609
-18.555,41.016,-13.672,-11.23,92.285
-10.254,40.527,108.887,-8.301,59.57
5.859,40.039,202.148,-6.836,82.031
1.953,40.527,136.719,-6.836,44.922
-10.742,40.527,30.762,-13.672,-13.672
-15.625,39.551,40.527,-17.578,-26.855
-20.508,36.133,131.348,-17.578,15.137
-16.602,33.691,156.738,-16.602,75.195
-9.277,32.715,152.832,-9.277,60.059
-16.113,35.156,86.426,-15.137,13.672
-22.949,38.574,0.488,-20.996,11.719
-21.484,41.992,92.285,-13.672,-12.207
-5.859,43.457,161.621,-17.09,6.348
2.93,40.527,176.758,-15.137,-21.973
-12.695,37.598,108.887,-10.742,4.395
-22.949,38.574,-27.344,-16.113,43.457
-21.973,38.086,81.055,-19.531,45.41
-12.207,37.598,146.484,-20.996,15.625
-4.395,40.039,180.664,-16.602,-38.574
-20.996,41.504,156.738,-14.648,29.297
-28.32,39.551,8.301,-20.996,59.57
-25.391,37.109,76.172,-20.996,37.109
-18.066,38.574,148.438,-16.602,26.367
-7.812,38.086,183.594,-13.672,47.363
-13.672,38.574,143.066,-10.254,43.945
-24.414,41.016,14.648,-18.555,41.016
-26.367,37.598,38.086,-26.855,29.785
-16.113,34.668,111.816,-20.02,-62.012
-5.371,35.645,128.906,-15.137,-71.289
-4.395,34.668,151.855,-19.043,3.418
-13.184,38.086,90.82,-17.09,4.883
-17.09,38.574,53.711,-16.113,-15.137
-0.977,36.621,145.508,-14.16,-10.254
18.555,39.551,133.789,-10.254,22.461
12.207,39.551,156.738,-6.348,19.531
0,40.039,94.238,-4.883,3.418
-3.418,40.527,17.578,-6.348,15.625
3.418,39.062,117.188,-1.953,0.977
8.301,36.133,232.91,3.418,39.062
1.465,33.691,160.156,2.93,66.406
-9.277,33.691,43.945,-1.465,72.266
-11.719,37.109,59.082,-10.742,57.617
-6.348,38.086,141.602,-11.23,63.477
-3.418,38.574,202.637,-3.906,50.781
-0.488,39.062,181.641,-2.441,2.441
-0.488,36.621,58.105,0,-9.766
-12.207,38.086,32.227,-5.859,33.203
-7.324,38.574,105.957,-8.789,15.137
8.301,36.133,166.992,-0.488,-19.043
10.742,38.086,187.988,-0.977,-32.715
5.371,41.992,75.684,0,-40.527
0,43.457,-13.672,-1.465,-2.441
0.488,44.922,112.793,-6.836,-5.859
10.742,46.387,207.031,-3.906,29.785
1.953,42.969,192.383,-2.441,53.223
-15.137,39.062,121.582,-1.953,61.523
-17.09,45.41,19.531,-1.465,66.895
-8.789,44.922,95.703,1.465,62.5
1.465,38.574,135.254,5.371,49.805
8.789,38.574,154.785,-0.488,49.805
-0.488,42.969,105.957,-0.977,97.656
-9.277,45.41,-11.23,-1.953,48.34
-8.301,40.039,63.477,-13.672,36.621
-2.441,41.504,105.469,-10.742,34.18
10.254,44.922,146.973,-0.977,-18.555
1.953,42.969,121.582,-2.93,25.391
-17.09,42.969,4.883,-5.371,53.711
-15.137,43.945,62.012,0,44.434
-7.812,46.387,142.09,3.906,33.691
0,47.363,169.434,6.836,6.348
1.465,45.898,143.555,7.324,18.555
-10.254,43.945,13.672,3.418,34.18
-8.301,39.551,29.297,4.395,60.547
1.953,39.551,135.254,6.836,60.547
12.207,39.551,113.77,5.371,49.316
-2.93,41.016,85.938,3.418,14.648
-24.414,44.922,63.965,-0.488,44.434
-30.273,42.969,25.879,-4.883,57.617
-12.695,41.016,119.141,-3.418,16.113
16.113,39.551,166.992,0.488,38.574
14.16,42.969,103.027,-5.859,-4.883
0.977,45.41,12.695,-16.113,-0.977
-9.766,41.992,-10.254,-14.16,27.832
-15.137,40.527,70.801,-13.672,5.859
2.93,42.969,144.531,-12.207,20.02
6.836,42.48,120.605,-10.254,-21.973
-13.184,42.48,-6.348,-18.555,9.766
-22.949,41.992,-68.848,-20.996,42.969
-18.555,43.457,67.383,-16.602,39.062
-2.441,42.969,117.188,-16.602,42.48
-0.977,42.48,121.094,-16.113,17.09
-14.16,44.922,36.621,-18.555,18.555
-21.973,41.992,-76.172,-27.832,11.23
-26.855,40.039,52.246,-27.344,16.113
-19.531,38.574,41.504,-20.996,12.695
-8.301,34.668,41.016,-13.672,20.996
-14.16,35.156,81.543,-3.906,31.738
-21.484,38.574,-53.711,-7.324,1.953
-18.555,35.156,6.836,-8.301,10.742
-6.836,35.645,28.809,-4.883,22.461
-0.488,36.621,44.922,-12.695,28.32
-11.719,35.156,67.383,-18.066,-24.414
-20.02,36.133,-50.781,-15.137,-40.039
-21.484,35.156,-11.719,-15.625,-24.414
-4.883,35.156,41.504,-13.184,-83.496
0.488,32.227,92.773,-10.254,-41.016
-23.926,22.461,30.762,-19.043,34.18
-41.504,15.137,-101.562,-30.273,20.508
-43.457,12.695,-40.039,-33.691,63.965
-27.344,12.207,32.715,-34.18,83.008
-12.207,10.742,58.594,-34.668,53.711
-20.508,8.789,-19.043,-36.621,20.02
-36.133,12.207,-72.754,-41.016,57.129
-32.227,15.137,-21.973,-36.133,65.918
-15.625,18.066,36.133,-28.32,39.062
-11.719,17.578,82.52,-30.273,39.551
-20.508,13.184,51.758,-30.762,34.668
-28.32,11.719,-83.496,-33.203,30.273
-34.18,9.277,-80.566,-44.434,41.016
-35.645,4.395,25.391,-48.34,31.25
-19.531,1.465,73.242,-42.48,-26.855
-20.02,2.441,57.129,-40.039,-34.18
-37.598,-1.465,-74.707,-42.969,1.465
-38.574,-1.465,-104.492,-43.945,9.277
-35.156,1.953,36.621,-39.551,24.414
-26.855,3.906,110.352,-36.133,14.648
-29.297,5.859,85.449,-37.598,34.668
-41.504,10.742,-19.043,-36.621,35.156
-46.875,14.16,-53.711,-34.668,-14.16
-41.992,11.719,41.016,-37.109,9.766
-29.785,12.695,103.027,-35.156,-21.484
-14.16,15.625,131.836,-26.367,15.137
-20.508,16.113,-2.441,-22.949,76.66
-30.762,17.09,-69.824,-31.738,53.711
-18.555,19.043,22.461,-36.133,1.465
0.977,24.902,52.246,-29.785,-36.621
5.859,24.902,81.543,-29.785,-37.598
-11.719,23.438,51.758,-31.25,11.23
-27.832,23.926,-28.809,-34.668,88.867
-23.438,22.461,41.992,-35.645,46.875
-8.789,23.926,83.008,-29.785,-10.254
-9.766,26.367,81.543,-28.32,19.043
-18.066,26.367,92.285,-28.809,14.16
-23.926,23.438,-21.484,-30.273,-14.648
-19.043,27.344,24.414,-29.785,-43.945
4.883,29.785,89.844,-19.531,-10.254
16.113,28.32,84.473,-18.066,25.879
10.254,28.809,4.395,-23.926,-3.418
-0.977,27.832,-53.711,-31.25,2.93
-2.441,31.25,37.598,-37.109,22.461
10.742,35.645,57.617,-31.738,-16.113
17.09,34.18,107.422,-29.785,19.531
17.578,31.25,26.367,-29.297,47.363
3.418,26.855,-100.586,-38.086,5.859
-6.836,30.762,3.418,-41.992,60.547
9.766,31.25,34.18,-32.715,82.52
25.391,30.762,49.316,-28.809,14.648
17.09,36.133,57.129,-24.414,11.23
7.812,38.574,-68.359,-19.043,50.781
8.789,36.621,-91.797,-15.625,24.414
18.555,35.645,32.715,-10.254,39.551
33.691,36.133,88.379,-2.441,67.383
33.203,40.039,49.805,-1.465,49.805
21.484,42.48,-64.453,-3.418,88.379
18.066,42.48,-93.75,-6.836,14.648
19.531,41.016,51.758,-11.23,26.855
27.344,38.574,128.906,-7.324,119.141
26.855,35.156,25.879,-2.93,17.578
18.066,34.668,-80.566,-9.277,-4.883
15.137,37.598,-78.613,-17.09,42.969
16.113,36.621,13.672,-15.625,24.902
24.414,37.598,107.91,-9.766,66.406
26.367,38.574,50.293,-6.836,48.34
13.672,40.527,-67.871,-6.348,-21.973
10.742,39.062,-77.637,-5.859,-3.906
21.973,38.086,16.602,-0.488,44.434
30.273,41.992,75.195,4.883,18.555
25.879,40.039,60.547,2.93,-21.973
12.207,38.086,-22.949,0.977,18.066
-3.418,41.016,-103.516,-3.906,31.738
0.488,38.086,-17.09,-2.93,-34.18
12.695,33.203,64.453,-8.789,-11.719
9.766,35.156,64.453,-10.742,47.852
0.488,35.156,-35.645,-3.906,14.16
-1.465,37.109,-103.027,-8.789,-13.672
-3.906,41.016,-14.16,-15.137,17.578
0.977,40.039,40.527,-19.531,18.066
4.883,36.621,40.527,-13.672,7.324
-10.742,34.18,-29.297,-7.812,-0.977
-20.996,34.18,-118.652,-16.113,-1.953
-18.066,37.109,-44.922,-13.184,14.648
-7.812,35.156,40.527,-7.812,79.59
6.348,33.691,35.156,-4.395,80.566
7.812,36.133,-23.438,3.418,58.105
-17.09,36.621,-142.09,3.418,22.949
-21.484,37.598,-93.75,-1.953,-51.758
-0.488,34.668,39.551,-2.441,1.953
6.836,32.227,52.734,1.953,74.219
2.93,35.645,-23.926,0.488,7.812
-11.719,37.598,-113.77,2.93,12.207
-18.555,35.645,-75.684,0.977,40.039
-7.812,33.203,26.855,-3.906,39.062
1.953,36.133,58.105,-0.488,18.066
2.441,39.551,28.32,4.883,0.977
-17.09,38.574,-91.797,-1.953,20.996
-31.25,39.062,-89.844,-12.207,31.738
-16.113,41.504,33.203,-12.207,53.711
-6.836,39.551,22.949,-9.766,55.664
-18.066,31.738,11.719,-10.254,44.922
-25.391,31.25,-44.922,-13.672,43.457
-28.32,33.691,-106.934,-13.184,27.832
-17.578,30.273,10.254,-8.789,22.949
-6.348,29.785,100.098,-9.277,20.508
-9.277,31.738,58.594,-14.16,30.273
-17.09,33.203,-56.641,-16.602,62.012
-20.02,38.086,-93.262,-20.508,21.973
-11.23,39.062,12.695,-14.16,-37.598
5.859,36.621,98.633,-7.324,-20.02
6.836,37.598,80.566,-3.906,29.297
-10.254,37.109,-31.738,-4.883,52.734
-20.508,33.203,-90.82,-15.137,7.812
-20.02,38.086,19.531,-15.625,28.809
-4.883,41.992,85.449,-1.953,74.707
8.789,40.039,80.078,0,51.758
-6.836,40.039,8.301,-9.766,67.383
-29.785,38.574,-79.102,-18.555,53.223
-23.926,38.086,11.23,-20.508,39.062
-5.371,41.504,84.473,-9.766,55.664
0.488,45.898,75.195,-1.465,15.625
-15.625,48.34,6.836,-6.348,-32.715
-30.762,46.387,-72.754,-13.184,-13.184
-22.461,41.016,16.602,-12.207,46.875
-6.348,38.086,78.125,-14.648,55.664
-0.488,40.039,79.59,-11.719,20.02
-10.254,40.527,34.18,-9.277,47.852
-27.344,39.551,-88.379,-14.16,62.5
-25.391,40.527,-22.949,-13.184,33.203
-1.953,38.574,86.426,-10.742,36.133
5.859,39.062,47.852,-5.371,23.438
-3.418,41.016,32.715,-1.953,29.297
-15.137,41.016,-30.762,-0.488,-16.602
-14.648,39.062,-37.598,-2.93,-50.781
4.395,42.48,78.125,-1.953,-13.184
11.719,46.387,123.535,1.953,-2.441
-1.465,45.41,72.266,-3.906,5.371
-17.578,44.922,-33.203,-10.742,68.848
-16.113,46.387,-47.363,-9.766,90.332
1.465,48.34,49.316,-7.324,47.363
9.277,45.898,136.719,-3.906,9.277
6.348,44.434,116.211,-4.883,50.293
3.418,46.875,-46.387,-0.977,48.828
0,44.922,-59.082,-0.488,9.277
-4.883,43.457,60.059,0.488,64.941
10.742,43.457,127.441,7.324,43.945
21.484,41.992,112.793,9.766,49.805
3.418,40.039,-41.992,5.371,57.617
-5.859,40.039,-75.684,-2.441,20.508
-1.953,37.598,37.109,-7.812,26.367
9.277,41.992,121.094,-6.836,25.879
12.695,41.504,100.586,-0.977,7.324
9.277,36.621,-9.766,-2.93,-7.812
6.836,41.016,-59.57,-12.207,-21.484
3.906,41.016,43.457,-6.348,-38.086
11.23,41.992,127.93,-1.953,-15.137
14.16,42.48,106.934,-6.348,-5.859
9.277,46.387,7.324,-3.906,18.066
-1.953,41.504,-63.477,-10.254,20.02
0,34.668,55.176,-17.578,17.09
20.508,37.598,90.82,-13.184,30.762
26.855,41.016,60.059,-5.371,3.418
20.02,44.434,73.242,-0.488,15.137
5.371,45.41,-24.414,0,13.672
2.441,49.805,38.574,-0.977,1.953
31.25,47.852,121.582,3.418,-3.418
33.691,41.504,58.594,5.859,21.484
12.695,46.875,61.035,5.859,88.379
2.93,48.34,21.973,5.371,57.129
1.953,48.34,39.551,2.441,49.805
20.508,47.363,119.141,3.418,62.988
18.066,44.922,110.84,10.254,-5.371
2.441,45.898,56.641,12.207,-50.781
-2.93,44.434,-23.438,8.789,12.207
-1.953,43.457,9.277,8.789,79.59
11.23,47.852,86.914,10.254,9.277
27.344,50.293,155.762,8.789,-1.465
32.715,51.758,101.562,10.742,35.645
20.508,47.363,-37.109,9.277,3.906
7.812,45.41,-8.789,4.395,0.488
18.555,49.805,105.469,3.418,15.137
34.18,47.363,167.969,5.859,-18.555
27.832,48.828,101.562,8.301,-44.922
6.836,50.293,-18.555,-1.465,-34.668
-6.836,44.434,-10.254,-8.789,30.273
9.277,45.898,79.59,-7.812,55.664
25.391,48.828,166.992,3.418,11.719
17.578,44.922,130.371,5.371,-15.625
-0.488,43.457,6.348,-4.883,-0.977
-13.184,46.387,-5.371,-9.766,24.414
-11.23,45.898,84.961,-4.883,29.785
3.906,43.945,163.086,1.953,7.812
2.441,42.969,138.672,-2.93,20.996
-6.836,45.41,35.156,-5.859,57.129
-14.16,43.945,-0.488,-5.371,72.266
-19.531,38.086,79.59,-6.836,90.82
-0.977,37.598,151.367,-2.93,114.258
10.742,38.574,129.395,6.348,56.152
-3.418,41.016,51.27,7.812,44.434
-14.648,38.086,-2.441,2.441,36.621
-8.789,35.645,103.516,2.93,44.434
5.859,33.203,128.418,3.906,61.523
4.395,30.273,113.77,4.395,4.883
-3.906,28.809,93.262,-2.93,2.93
-10.742,23.926,-12.207,-9.766,14.648
-10.254,23.438,78.125,-6.348,7.324
2.441,20.02,155.762,-2.441,68.359
11.719,17.578,112.793,3.418,103.516
6.836,19.531,95.215,-0.977,35.645
-6.836,20.996,7.324,-16.602,-16.602
7.324,23.438,62.5,-16.602,5.859
23.926,23.438,160.645,-7.324,34.668
20.996,30.273,171.875,-5.371,55.176
12.695,28.809,91.797,-14.16,49.316
-6.348,24.902,-13.672,-18.066,20.02
-4.883,29.297,55.176,-21.973,29.297
12.207,32.227,141.602,-19.043,30.273
16.602,31.25,109.375,-13.184,46.875
6.836,29.297,85.449,-15.137,71.289
-6.348,32.715,61.035,-9.766,55.176
-7.812,34.668,41.992,-16.113,35.156
0,35.156,141.602,-17.578,70.801
7.324,32.715,178.711,-10.742,65.918
-6.348,32.227,103.027,-10.742,16.602
-30.762,32.715,2.93,-13.184,42.48
-31.25,26.367,18.555,-18.066,48.828
-13.184,26.367,93.75,-16.113,42.48
-4.395,28.809,169.922,-13.672,18.555
-13.184,30.273,134.766,-4.395,12.695
-26.855,27.832,7.324,0.488,23.926
-26.855,25.879,0,-6.836,24.902
-15.137,28.809,78.125,-7.812,1.953
4.395,30.762,165.039,-5.371,8.301
11.23,29.785,133.301,-3.906,43.457
2.93,32.227,9.277,-5.859,24.902
3.906,39.062,-11.23,-8.301,-2.441
26.367,40.039,92.773,6.348,-6.836
22.949,35.645,154.297,1.465,34.668
3.418,25.879,116.699,-11.23,-9.766
-13.184,25.391,31.25,-18.066,-9.766
-21.973,28.32,-42.969,-18.555,-23.926
-15.137,22.949,60.059,-20.996,-29.785
-7.812,25.879,137.695,-29.297,-13.672
-7.324,24.902,148.438,-27.344,-26.855
-16.113,21.973,75.684,-26.367,61.523
-24.414,22.461,-37.598,-28.809,102.539
-17.09,25.879,48.828,-21.484,51.27
-4.883,29.785,110.352,-18.066,39.062
-10.254,29.297,84.961,-20.02,3.906
-15.625,29.785,48.34,-17.578,-26.855
-20.508,27.344,-40.527,-22.461,-12.695
-27.832,27.344,45.898,-26.855,35.156
-20.996,27.832,106.934,-20.02,35.645
-9.277,22.949,65.43,-15.137,-3.418
-9.277,24.414,79.102,-17.09,35.156
-15.137,30.762,-10.254,-18.066,51.758
-15.625,30.762,13.184,-18.066,61.523
-1.953,28.809,106.445,-11.719,68.848
7.812,33.691,51.758,-9.766,-13.184
-0.488,35.156,47.363,-12.695,-0.977
-18.066,32.227,64.941,-12.207,45.898
-18.066,33.691,-8.789,-16.113,26.367
3.906,32.715,29.785,-19.043,-27.344
23.926,30.273,131.348,-14.648,-38.574
21.484,36.133,95.703,-9.277,-11.23
0.977,37.109,-42.48,-12.207,0.488
-0.488,34.668,-44.434,-19.531,-19.531
4.883,34.668,66.895,-17.578,22.949
11.23,29.297,172.852,-11.719,80.566
17.09,28.32,143.066,-9.277,80.566
4.883,32.715,-0.977,-14.16,119.141
-12.695,32.715,-37.598,-22.949,75.684
-16.602,34.18,68.359,-22.949,0
-4.395,34.668,147.461,-16.113,19.043
-1.465,30.762,115.723,-11.23,-11.23
-14.648,31.25,-14.16,-12.695,-31.738
-25.391,32.227,-20.02,-17.578,51.27
-14.648,28.809,83.496,-21.973,51.27
-0.488,24.414,124.512,-20.02,-20.508
-6.348,23.926,111.328,-22.461,36.621
-27.832,26.855,11.23,-20.996,62.988
-39.062,27.832,-31.25,-24.414,47.363
-34.18,24.414,48.34,-34.18,35.645
-27.344,18.066,118.652,-33.691,10.742
-17.578,19.043,132.324,-27.832,17.578
-28.809,18.066,20.508,-25.391,43.945
-44.434,14.16,-50.781,-24.414,37.598
-38.574,14.16,43.945,-27.344,23.438
-25.391,12.695,70.801,-22.949,35.645
-21.973,16.113,91.797,-17.09,36.133
-31.25,18.066,5.371,-18.555,17.578
-45.41,14.648,-95.215,-18.555,20.508
-41.016,13.184,20.508,-13.672,6.348
-22.461,15.137,99.121,-14.16,7.812
-20.02,17.578,47.852,-20.996,28.32
-29.297,20.02,33.203,-18.555,-2.441
-44.922,22.461,3.418,-17.578,-33.203
-48.828,20.02,36.621,-21.484,33.691
-30.762,19.531,61.523,-22.949,14.648
-13.672,23.926,79.102,-22.461,-20.508
-20.996,22.461,58.105,-23.438,13.672
-31.25,22.461,-51.27,-22.949,26.855
-27.832,26.367,-30.762,-21.484,10.254
-21.973,30.273,41.016,-20.02,2.93
-20.508,30.273,125,-19.043,4.883
-26.855,29.297,101.562,-15.625,-0.488
-35.645,32.227,-17.578,-20.02,20.02
-30.273,30.273,-13.184,-23.438,46.387
-18.066,29.785,67.871,-20.508,19.531
-4.395,31.25,142.09,-21.973,32.715
-1.953,35.156,126.953,-21.973,88.867
-14.16,37.598,-20.508,-25.879,79.102
-22.949,36.133,-27.344,-26.855,25.391
-17.578,41.016,95.703,-23.926,17.09
0.488,41.992,156.738,-20.02,55.176
-0.488,41.016,101.562,-17.09,43.457
-7.324,42.969,23.926,-20.02,50.293
-4.395,45.41,11.719,-22.949,90.332
4.395,49.316,74.219,-17.09,21.484
16.113,52.246,144.043,-12.695,-16.602
14.16,49.316,141.113,-12.695,43.945
6.836,47.363,20.508,-11.23,31.738
-0.977,45.898,-38.086,-10.742,-15.137
5.371,48.34,97.656,-13.184,-17.578
17.578,52.734,117.188,-14.16,2.93
18.066,52.734,114.258,-7.324,8.301
-0.977,53.223,108.887,-2.441,26.855
-15.137,50.293,-53.711,-3.906,-22.461
-11.23,47.363,75.195,-1.953,-35.156
-1.953,47.852,139.648,1.465,19.531
3.418,41.992,54.688,-1.465,23.438
-7.324,37.109,88.379,-7.324,12.207
-16.602,36.621,12.695,-12.695,61.035
-8.301,36.621,19.531,-13.672,85.449
5.371,39.062,91.309,-5.859,30.762
11.719,40.039,150.879,-3.906,21.484
12.695,44.922,62.5,-3.418,58.105
7.324,47.852,-57.617,-1.465,24.414
6.348,42.48,18.066,0.488,18.555
20.02,42.48,58.105,5.371,22.949
33.691,42.969,104.492,8.301,10.254
26.367,44.922,82.52,10.254,-2.93
4.883,48.828,-52.246,8.789,23.926
-0.977,44.434,-12.695,5.859,41.016
13.672,47.363,55.664,12.207,2.93
20.02,49.316,87.402,17.09,35.645
16.602,49.805,55.664,15.137,44.434
7.812,50.781,-54.199,14.16,24.414
6.348,45.898,-41.992,11.23,78.125
21.484,45.41,41.016,15.137,94.727
34.18,46.875,98.145,22.949,63.965
29.297,46.387,34.18,16.113,50.293
18.066,47.852,-50.293,6.348,55.664
12.695,46.875,-36.133,4.395,43.457
17.09,42.969,33.203,6.836,8.789
26.855,41.992,104.004,16.113,83.008
31.25,43.457,54.688,20.508,62.5
20.508,47.363,-79.102,15.625,21.484
7.324,48.828,-109.375,10.254,15.137
9.766,46.387,-4.395,6.348,-18.066
29.297,50.293,76.172,5.859,3.906
33.691,56.641,61.523,6.836,8.789
17.09,56.641,-83.984,0.977,-9.277
7.812,52.734,-153.809,-7.324,0
6.348,49.805,-21.484,-7.324,20.02
17.09,51.27,45.898,-5.371,39.551
19.531,50.781,25.879,-6.836,57.129
9.766,49.316,-56.641,-9.277,46.387
-4.883,47.363,-124.023,-15.137,26.367
-0.488,50.781,-27.832,-15.625,28.32
20.02,53.223,11.23,-7.324,-13.672
25.391,47.852,38.086,0.488,-13.184
16.113,42.969,-7.324,6.348,47.852
5.371,46.387,-131.348,1.465,71.289
-0.488,44.922,-87.891,-3.906,30.762
8.789,41.504,-21.484,2.93,-3.418
20.508,43.457,-44.434,2.441,83.008
14.16,46.387,-49.805,0.977,62.5
3.906,45.898,-39.551,2.93,17.09
9.277,44.434,-33.203,3.418,70.801
28.809,45.41,-20.996,6.836,17.578
33.203,42.48,12.695,12.207,-9.277
19.043,44.922,-15.625,10.254,3.906
6.348,47.852,-138.184,3.906,-8.301
3.906,41.992,-81.543,-2.441,-6.836
10.742,37.598,-10.254,-3.418,22.461
13.672,39.062,4.883,-1.465,37.109
0,35.645,-36.133,-6.348,36.133
-20.508,32.715,-139.648,-11.23,39.551
-24.414,33.691,-86.426,-14.648,3.906
-6.836,35.156,-15.625,-12.207,0
0.488,29.785,-9.277,-9.766,-41.992
-2.441,26.855,-4.883,-12.207,-13.672
-8.789,31.25,-126.465,-12.695,5.371
-12.695,33.203,-123.535,-14.16,-46.875
6.348,32.227,-15.137,-13.672,-17.09
16.602,27.832,20.996,-15.625,-7.812
2.93,22.461,16.602,-17.09,11.23
-14.16,17.09,-130.371,-19.043,27.832
-19.531,19.043,-169.434,-22.461,43.457
-9.766,22.461,-29.785,-20.508,67.871
2.93,24.902,55.176,-17.09,61.035
3.906,25.879,9.766,-17.09,28.809
-3.906,23.438,-110.84,-20.996,15.625
-13.672,22.949,-134.277,-24.414,16.113
-17.578,20.02,-18.066,-22.949,43.457
-6.348,16.113,48.828,-19.043,96.68
-5.859,16.602,23.438,-12.695,60.059
-17.578,18.066,-78.613,-16.602,11.719
-21.973,19.531,-151.855,-20.996,25.879
-20.02,18.066,-75.684,-24.902,39.062
-11.719,18.555,-20.508,-37.598,33.203
-7.324,13.672,7.812,-39.551,48.828
-15.625,12.695,-84.473,-35.645,10.254
-26.367,21.484,-163.574,-38.086,-48.828
-23.438,17.09,-25.391,-39.551,-26.855
0.977,14.648,26.855,-29.297,21.484
6.836,15.625,9.766,-25.879,16.602
-8.301,14.648,-5.859,-24.902,9.277
-16.113,16.602,-119.629,-20.996,34.668
-11.23,12.695,-58.105,-20.508,11.23
1.953,9.766,38.574,-8.789,18.555
9.277,13.672,41.992,-5.371,-3.418
0.488,15.137,-3.418,-14.648,1.465
-10.742,14.648,-105.469,-16.602,78.613
-19.043,11.23,-84.473,-14.16,36.133
-13.672,-0.488,32.715,-15.625,15.137
-4.883,-3.418,76.66,-16.113,44.922
-12.695,-3.906,13.184,-11.23,47.363
-20.996,-5.371,-121.582,-17.09,9.277
-19.531,-3.418,-82.52,-20.02,-16.113
-9.277,-4.395,39.551,-13.184,-2.93
1.465,0.488,95.703,-8.789,38.086
-0.977,6.836,24.902,-4.883,52.246
-6.836,3.906,-89.844,-8.789,5.859
8.301,6.836,-57.129,-12.207,36.621
28.32,9.277,38.086,-7.324,31.25
39.062,7.324,101.562,-7.324,-12.207
28.32,8.301,61.523,-13.184,6.836
13.672,8.789,-67.383,-10.742,53.711
7.324,9.766,-73.242,-8.301,21.973
13.672,11.719,26.855,-11.719,-34.668
31.738,14.16,110.352,-8.789,-26.855
35.645,14.648,84.961,-2.93,25.879
20.996,17.578,-40.039,-9.766,86.426
13.672,15.625,-83.496,-11.23,47.363
18.555,15.137,27.344,-10.254,9.766
23.926,15.625,113.77,-11.719,4.883
19.531,13.184,81.543,-5.859,-1.465
5.371,18.066,-48.34,-4.883,2.441
-8.301,21.484,-86.426,-13.184,-37.598
2.93,20.996,26.367,-17.578,7.324
21.484,26.855,77.148,-10.254,20.02
16.602,24.414,90.82,-4.395,37.598
2.441,23.438,-32.715,-9.277,77.637
-8.789,22.949,-113.281,-12.695,34.18
-3.906,22.949,23.438,-9.277,59.082
10.742,26.855,39.551,-4.395,41.504
21.484,23.438,4.395,0.977,-0.977
17.578,20.508,21.973,-0.488,48.34
4.395,20.996,-53.711,-5.859,35.156
9.277,23.438,3.906,-3.418,34.18
25.879,26.367,79.59,2.441,102.539
35.156,26.367,58.105,4.395,78.613
29.785,27.832,-0.488,5.859,34.18
20.508,32.715,-93.262,4.395,32.227
17.578,32.227,-47.363,0.488,5.859
28.32,28.32,63.965,1.953,19.531
34.668,28.809,100.586,5.371,55.176
27.344,28.809,20.996,6.348,14.16
14.16,26.855,-89.844,1.465,-9.277
9.766,28.32,-32.227,0.488,49.316
23.926,29.785,64.453,3.418,67.383
40.039,30.762,103.027,6.836,67.383
38.086,30.273,47.852,11.23,30.762
24.902,31.738,-70.801,5.371,-2.441
20.508,34.18,-54.688,2.441,-1.465
36.621,35.645,66.406,14.16,13.184
51.27,36.621,126.465,19.043,16.602
47.363,37.598,84.473,17.09,29.297
37.598,44.922,-50.293,16.602,-6.836
26.855,44.434,-28.32,12.695,6.836
30.762,41.504,70.801,15.625,56.641
45.898,44.434,106.934,17.578,9.766
48.34,43.457,96.68,13.184,-34.668
33.691,45.41,-10.254,7.324,26.855
27.832,45.898,-46.387,3.418,98.145
37.598,49.805,49.805,5.371,43.457
46.875,52.734,71.777,5.859,20.508
53.223,50.293,85.938,14.16,41.504
41.992,52.246,43.457,17.578,4.395
29.785,52.734,-47.852,14.16,21.973
33.203,54.199,62.5,12.695,103.027
42.48,55.176,98.145,10.742,77.148
42.969,53.223,2.93,12.695,-5.859
37.109,58.105,22.461,14.16,-14.16
33.203,55.176,41.992,15.625,60.547
34.18,49.805,64.941,17.578,62.988
47.363,50.781,95.215,21.484,34.18
51.758,51.758,108.887,25.391,25.879
33.691,51.27,29.297,21.484,-0.488
24.902,49.805,-52.734,17.578,63.477
21.973,48.828,20.508,11.23,45.898
28.32,48.34,68.359,11.23,12.207
39.551,50.781,76.172,14.16,-19.043
30.273,54.688,51.758,13.184,-44.434
18.555,53.711,-55.176,9.766,20.02
20.996,50.293,-49.316,5.371,-7.812
29.785,47.852,67.871,5.859,6.348
31.738,49.805,117.676,15.137,-2.93
25.879,51.758,63.965,20.508,-16.113
16.113,46.875,-35.645,15.625,41.992
18.066,44.434,-9.277,9.766,64.453
27.832,44.922,70.801,6.348,25.879
30.762,44.922,134.277,2.441,22.949
26.367,41.504,82.031,-1.953,50.293
13.672,40.527,-43.457,-6.836,85.938
9.277,42.48,-41.992,-10.254,47.363
19.043,38.574,76.66,-2.441,31.738
30.273,39.062,129.883,0,84.961
28.32,42.48,45.898,-4.883,61.035
13.672,40.527,-68.359,-5.859,9.277
2.93,44.434,-34.668,-9.766,18.066
12.207,45.898,49.316,-10.742,70.801
24.414,43.457,119.141,-4.395,73.73
28.809,42.48,76.172,-2.93,70.312
19.043,41.504,-75.195,-3.418,32.715
7.324,41.504,-73.242,-1.953,15.137
11.719,42.969,9.766,-2.93,47.363
18.066,43.457,70.801,-2.441,26.367
21.484,40.039,84.961,-0.977,68.359
9.766,41.992,-61.523,-2.441,80.078
1.465,44.434,-124.023,-4.395,18.066
8.301,41.016,3.906,-4.395,-1.465
14.648,41.016,37.598,-2.93,0
10.742,38.086,29.297,-3.906,0
-2.93,37.109,-8.789,-10.254,-8.301
-8.301,41.992,-89.355,-11.23,55.664
-2.441,40.039,-27.832,-7.324,25.879
13.184,38.574,23.438,-3.418,-30.762
21.484,41.016,10.254,-3.418,48.828
6.348,42.48,16.113,-7.324,67.383
-2.93,39.551,-66.406,-15.137,67.871
7.324,39.062,-73.73,-14.648,48.828
16.113,39.551,-19.531,-6.836,-49.316
7.812,39.062,56.641,-14.16,-53.711
-4.395,41.992,59.082,-18.555,23.926
-11.23,42.969,-103.027,-11.719,27.832
-7.324,39.551,-53.223,-7.324,54.199
4.395,35.156,10.254,-5.371,45.898
14.648,32.715,42.969,-2.93,32.715
14.16,34.668,-23.438,-2.93,35.645
7.324,38.574,-100.098,-6.348,49.316
5.859,39.551,-45.898,-10.742,150.879
14.16,40.039,-36.133,-7.324,69.336
18.066,40.039,-4.883,-2.93,20.996
12.207,37.598,-11.23,0,42.48
5.371,34.668,-110.352,-4.883,31.738
2.93,34.668,-98.633,-11.719,29.297
10.742,30.762,-21.484,-5.371,17.09
17.09,25.391,16.602,-1.953,7.324
2.441,25.391,12.207,-8.789,28.809
-17.578,24.414,-136.719,-13.672,47.852
-29.785,18.555,-143.066,-20.996,9.277
-33.691,15.625,-43.457,-30.762,19.043
-29.297,11.719,20.508,-33.203,34.668
-28.809,8.789,6.348,-29.785,49.805
-33.203,15.137,-172.363,-32.227,32.715
-39.551,12.207,-166.504,-40.527,59.082
-29.297,10.742,-78.125,-36.621,31.738
-14.16,11.719,35.645,-33.691,-11.719
-14.16,9.277,42.969,-33.691,31.738
-28.809,13.672,-128.906,-33.203,75.195
-36.621,16.113,-186.523,-40.039,41.016
-19.531,16.113,-73.242,-42.48,-2.93
-3.906,15.137,-19.043,-37.109,-4.395
-0.977,16.602,0.977,-31.25,4.395
-15.625,17.09,-94.238,-34.18,37.109
-29.297,15.625,-211.914,-39.551,21.973
-18.555,16.602,-118.164,-35.645,-0.488
-6.348,18.555,-10.742,-30.762,-27.832
0.488,22.949,2.93,-25.391,-20.02
-8.301,23.926,-86.426,-21.484,7.324
-16.602,21.484,-169.434,-17.578,42.48
-10.742,24.414,-88.867,-9.277,61.523
2.93,28.809,-25.391,-2.441,-11.719
6.836,28.809,-56.152,-1.953,-6.348
-5.371,33.203,-17.09,-3.418,61.035
-14.648,36.133,-74.219,-2.93,94.727
-13.184,32.227,-96.191,-2.441,86.914
4.395,31.738,-34.668,3.906,29.297
22.461,32.715,-21.484,10.742,-0.488
12.207,31.738,-32.715,6.348,11.719
-0.977,37.598,-119.629,-3.418,45.41
-4.395,35.645,-105.469,-0.977,24.414
5.859,29.785,-25.879,3.906,-7.812
16.602,30.762,25.391,1.953,22.461
12.695,31.738,1.953,0,52.246
-3.418,27.832,-127.441,-1.465,75.195
-13.184,27.344,-107.91,-0.977,9.766
-6.836,28.32,-19.531,-4.883,-18.066
5.859,25.391,46.387,-0.488,40.527
6.348,23.926,1.953,2.93,12.695
-11.719,20.508,-165.039,0.977,-57.617
-26.367,13.672,-115.234,-8.789,-54.688
-15.625,13.184,7.324,-15.625,-17.09
-2.441,20.508,88.379,-6.348,-12.207
-2.441,25.879,73.242,-5.859,8.301
-2.93,26.855,-105.957,-5.371,-7.324
-11.719,26.367,-112.305,-5.859,8.789
-3.418,29.297,20.996,-2.93,59.082
14.648,30.273,59.57,6.348,10.742
12.207,30.273,48.34,5.371,-20.996
0,31.738,-69.824,-1.953,-2.441
-12.207,29.297,-128.418,-8.301,-4.395
-8.301,27.832,-50.293,-9.766,-22.461
13.672,32.227,67.383,-6.348,-12.695
12.207,36.133,83.496,-6.836,51.27
-16.602,30.762,-63.965,-11.23,68.359
-25.391,30.762,-119.141,-11.719,21.973
-10.254,34.668,16.113,-5.371,4.883
6.348,30.762,32.715,-1.465,-2.441
12.207,28.32,36.133,-4.883,34.668
5.859,29.785,17.09,-4.883,25.879
-4.395,29.785,-75.684,-4.395,-49.316
-6.348,26.855,22.461,-8.789,-30.762
5.859,23.926,65.43,-8.789,41.992
16.602,24.902,25.879,-6.836,15.137
9.277,28.32,-28.32,-4.883,-6.348
3.906,33.203,-85.938,-4.395,16.602
5.859,28.809,-14.648,-6.836,26.855
15.625,25.391,34.18,-3.418,39.551
23.438,27.344,50.781,1.953,33.691
11.23,27.832,-1.953,-0.977,31.738
2.441,30.762,-100.098,-3.906,56.641
7.324,33.691,-23.926,-1.953,76.172
20.996,33.691,12.695,-1.465,30.273
25.879,33.203,26.367,-2.441,-15.625
18.066,31.738,8.301,-1.953,0.977
9.766,36.133,-91.797,0.488,56.152
7.324,40.527,-54.199,-0.977,72.754
19.043,37.109,37.598,-2.441,64.453
26.855,35.156,77.148,-1.465,22.949
16.602,35.645,31.25,-4.395,-4.883
8.301,41.016,-83.008,-3.906,27.832
4.395,41.992,-76.172,-8.301,16.113
11.23,39.551,27.344,-4.883,-0.977
22.461,44.434,98.145,2.93,-28.809
16.113,43.457,97.168,-2.93,-2.93
-5.371,39.551,-38.574,-6.836,64.453
-11.23,39.551,-104.004,-5.859,33.203
-5.371,41.016,11.23,-5.859,62.988
1.953,41.504,20.02,-6.836,38.086
13.184,40.039,17.578,-2.93,-13.672
3.906,38.086,22.461,-3.906,39.062
-6.348,39.551,-49.805,-8.789,48.828
7.324,40.527,44.434,-0.977,44.434
25.879,41.016,41.992,6.348,69.336
32.227,43.457,44.922,3.418,62.988
25.391,41.016,22.949,-1.953,7.324
16.602,38.574,-66.406,0.488,14.16
22.949,39.062,31.25,0.977,66.406
41.016,40.039,105.469,4.395,53.223
49.316,40.527,80.078,12.207,64.453
40.039,37.598,-17.578,11.719,102.051
29.785,39.062,-37.598,4.883,83.984
31.25,40.527,22.461,4.395,75.195
42.48,39.551,61.035,10.254,36.133
49.805,40.527,145.02,16.113,28.32
31.25,43.945,30.762,11.719,51.758
20.508,42.969,-81.543,5.371,12.695
30.273,37.598,10.254,4.395,-32.227
38.574,42.969,66.895,3.418,-39.551
40.527,44.922,137.207,6.836,40.527
34.18,41.504,44.434,4.395,59.082
20.996,45.898,-105.957,0.488,11.23
17.09,49.805,-2.441,0.977,-20.02
32.715,47.363,108.398,3.418,6.348
42.48,43.457,152.344,5.371,32.227
32.227,38.086,96.191,5.859,29.297
20.996,34.18,-47.363,2.93,34.668
8.789,35.156,-11.23,-0.977,25.879
19.043,34.18,89.355,-0.977,24.414
34.18,35.645,150.879,2.441,73.73
21.973,32.715,90.82,5.859,51.758
11.23,34.668,-44.922,2.441,-20.996
7.812,40.527,-8.301,4.395,-0.977
19.043,41.504,42.48,11.719,-32.715
36.133,38.574,133.301,10.742,-16.113
30.273,38.086,106.445,10.254,10.742
19.531,41.992,-19.531,16.113,31.25
17.578,38.574,-14.648,15.625,27.832
21.973,36.133,80.566,14.648,20.508
34.18,36.133,152.344,16.113,38.574
26.855,40.527,101.074,13.672,-14.16
0.488,41.016,-11.719,10.254,-27.344
-9.277,32.715,-35.645,5.859,-10.254
2.93,32.227,65.918,4.395,-15.625
16.113,37.109,114.258,6.836,30.273
18.555,38.574,68.848,6.836,-14.16
11.719,41.016,36.621,14.16,-20.996
-1.953,35.156,7.324,15.625,84.961
5.371,37.109,62.5,11.23,64.941
19.043,39.551,41.504,5.371,38.086
19.531,31.25,61.035,-3.418,66.895
13.672,32.715,58.594,-7.812,34.18
3.418,34.668,-41.504,-7.812,37.109
2.441,37.109,20.996,-6.348,51.27
9.766,41.504,110.352,-4.395,24.902
14.648,40.527,111.816,0.977,18.066
8.789,37.598,-32.715,5.371,-15.137
2.441,35.645,-97.168,4.883,-22.461
3.906,36.621,51.27,4.395,32.227
13.672,38.574,113.281,3.906,52.734
18.555,35.156,109.863,4.395,53.711
3.906,34.18,35.645,3.418,39.062
-9.766,37.109,-81.055,2.93,53.223
-6.836,34.668,-12.207,1.465,69.824
11.23,31.25,58.594,2.441,96.191
20.02,32.227,69.824,4.883,74.707
16.113,33.203,31.25,7.324,36.621
6.836,35.156,-89.844,7.812,33.203
2.441,36.621,-47.363,4.883,53.711
20.996,38.574,16.113,10.254,56.152
34.18,36.133,43.945,10.742,-5.859
30.762,33.691,32.715,6.836,-20.02
13.672,35.156,-64.453,4.395,-48.34
-2.441,31.738,-34.18,1.953,-0.977
2.93,28.809,41.504,5.371,21.973
18.555,30.762,-12.207,8.301,-20.02
17.09,34.18,30.762,1.953,-16.113
3.418,36.133,2.93,-2.93,7.324
2.93,41.992,-68.359,-1.465,41.016
7.324,40.039,4.395,-2.441,2.93
25.391,34.18,64.453,2.441,-8.789
22.949,32.715,30.273,5.859,59.57
-4.883,29.785,-75.684,-0.488,59.082
-12.695,21.973,-76.66,-0.488,-11.23
2.93,13.672,5.371,9.766,-0.977
18.066,30.273,72.266,4.395,-13.184
9.766,45.41,93.75,-13.184,17.578
-5.859,35.645,-62.5,-16.602,33.691
-10.254,30.273,-107.91,-19.531,45.898
5.371,39.551,-7.324,-16.602,62.988
18.066,39.062,60.059,-13.672,-17.09
22.949,37.598,87.402,-6.836,-17.578
13.184,37.109,-48.34,-5.371,38.574
-0.488,31.738,-161.133,-13.672,49.805
5.859,36.621,-23.926,-12.207,-1.465
13.184,38.574,48.828,-10.742,22.949
9.766,37.109,46.387,-10.254,33.691
-0.977,37.109,13.672,-5.371,-17.578
-12.207,35.156,-105.957,-4.883,16.602
-11.23,33.691,-62.988,-3.906,32.227
8.301,38.574,0.977,1.465,50.293
17.578,39.551,74.707,4.395,96.68
11.23,38.086,8.301,-0.488,74.219
-0.488,41.016,-128.418,-6.836,36.621
-0.488,38.574,-63.477,-11.23,-9.766
17.578,37.109,-20.508,-9.277,-11.719
16.602,39.062,42.969,-11.719,20.508
0.977,37.598,49.316,-18.066,10.742
-7.324,39.062,-101.562,-18.066,35.156
-5.859,40.527,-60.059,-19.531,34.18
5.371,37.598,40.039,-14.16,36.133
23.438,39.551,57.617,-4.395,43.457
21.973,38.574,-1.953,-1.465,5.859
9.277,35.156,-111.328,-5.859,50.293
10.742,35.156,-101.074,-3.418,37.598
20.02,32.227,18.066,0.488,-13.672
29.297,25.391,70.801,3.418,4.395
25.879,24.902,-6.348,5.371,17.09
7.812,26.855,-135.742,0.977,-21.484
10.742,33.203,-48.828,4.395,7.812
23.926,38.086,58.594,9.766,83.496
27.832,36.621,68.848,14.648,62.5
26.855,35.645,35.156,18.555,20.508
12.695,40.039,-102.051,18.066,23.926
-2.93,35.156,-105.957,7.324,13.184
6.348,33.691,-4.883,0.977,-11.23
23.926,41.992,80.078,6.348,-6.348
20.996,42.48,70.312,5.371,-38.086
11.719,40.039,-83.496,2.441,-45.898
11.23,42.48,-111.816,-1.953,0.488
18.555,42.969,41.504,-5.371,44.434
27.832,44.922,56.152,-1.953,84.473
31.25,48.34,29.785,0.488,60.059
19.531,49.316,15.625,0.488,13.672
13.184,50.293,-79.59,0.977,10.742
26.367,50.293,-12.207,4.883,36.621
39.551,49.316,80.078,10.254,74.707
40.039,45.898,79.59,10.742,81.543
29.297,43.457,-54.688,7.324,74.707
13.184,40.039,-130.859,8.301,44.922
13.184,40.527,-46.875,9.277,31.738
23.926,38.574,18.555,13.672,40.527
28.809,37.109,66.406,16.113,52.734
21.973,39.062,-24.414,15.137,44.922
5.371,41.016,-116.699,16.113,0.488
0.488,41.016,-49.316,11.23,-51.758
13.672,38.574,18.066,4.395,5.371
20.996,41.504,54.199,6.836,26.855
6.348,40.527,-12.207,3.418,-26.367
-13.672,40.039,-125.488,-3.906,20.508
-19.043,40.039,-72.754,-2.441,2.441
-2.93,36.621,-3.906,0,-12.207
11.719,36.133,27.832,4.395,25.391
11.23,39.062,-21.484,10.254,17.578
0.977,42.969,-112.305,11.23,41.016
-12.207,47.363,-43.457,6.836,22.461
-0.488,50.293,29.297,9.277,38.574
23.438,48.34,-36.133,18.066,33.203
18.066,45.41,-4.395,17.578,-17.578
0.977,47.363,-6.348,11.23,54.688
4.883,48.34,-66.406,12.695,96.68
18.066,42.969,0.977,13.672,60.547
27.344,44.922,71.289,19.043,47.363
24.902,51.27,50.293,21.484,40.527
9.766,47.852,-124.023,15.625,-22.461
1.953,44.434,-119.141,11.23,-49.316
14.648,46.875,34.18,11.23,-3.906
23.926,46.875,142.09,11.719,46.387
13.184,42.969,89.844,10.254,63.965
3.418,41.504,-98.145,8.301,1.465
3.418,44.434,-81.055,5.371,12.695
8.789,44.434,3.418,5.371,64.941
16.113,40.527,75.195,6.836,31.25
15.137,42.48,118.164,7.812,6.348
0.977,40.527,-41.992,11.719,1.953
-2.441,36.621,-81.543,4.883,69.336
6.348,39.551,-3.906,-0.977,62.5
20.508,43.457,59.082,7.324,16.113
27.344,46.875,100.586,9.766,53.223
18.066,46.387,-9.766,2.93,47.852
10.254,47.363,-75.684,-0.977,41.016
11.719,41.992,18.555,-2.93,94.727
26.367,41.016,51.27,-0.977,56.641
34.18,47.363,95.703,3.418,34.18
25.391,48.828,14.16,5.859,76.172
17.09,44.922,-118.164,0.977,34.18
25.391,39.551,-26.855,-4.883,34.18
45.41,39.062,62.012,-3.418,53.223
53.711,35.645,78.613,-0.488,9.766
43.457,33.691,12.695,4.883,65.43
18.066,37.109,-90.332,6.348,98.633
9.277,42.969,-21.484,6.348,46.387
22.461,42.969,62.5,11.719,31.25
32.227,38.574,82.031,16.113,-8.301
26.367,42.969,38.574,12.695,10.254
16.602,46.875,-88.379,5.371,37.109
13.184,43.945,-30.762,0.977,25.879
20.996,44.434,66.406,2.441,64.453
32.715,45.898,107.422,6.348,44.922
24.414,45.41,97.168,4.883,39.062
4.395,46.875,-81.055,-0.977,21.973
0.488,43.457,-77.637,-3.418,27.344
19.043,40.039,50.293,1.953,40.039
37.109,40.039,38.574,2.441,22.949
37.109,40.039,64.453,-1.953,67.871
25.879,39.062,-9.766,2.441,16.602
20.508,41.016,-48.34,-0.488,24.902
27.344,41.016,26.855,0.488,12.695
29.297,39.551,42.969,6.836,-34.668
29.297,40.039,93.262,15.137,38.086
17.578,33.691,-51.758,11.719,-1.465
8.789,34.668,-91.797,-5.859,-49.805
23.438,38.574,23.438,-7.812,-28.32
36.621,36.133,83.496,-3.418,-5.859
36.621,36.621,98.633,0,6.348
24.414,37.598,-25.879,0.977,22.461
8.789,41.016,-75.195,0.488,45.898
12.207,37.598,0,0.488,-11.719
33.203,32.715,90.332,3.906,-55.664
33.691,32.227,116.211,4.883,38.574
24.414,30.762,-44.922,2.93,30.762
23.926,31.738,-110.84,4.883,-9.766
20.996,40.039,-6.348,5.371,36.133
30.273,42.48,59.57,8.789,-3.906
45.41,35.645,111.816,17.578,20.508
27.344,33.203,-26.855,18.066,70.801
11.23,37.109,-113.281,17.09,32.715
20.02,38.574,36.133,16.113,9.766
36.621,39.062,89.355,15.137,20.996
38.574,41.504,66.895,11.23,69.824
17.09,42.48,-8.301,3.906,62.988
0,40.527,-80.566,-3.418,18.066
1.465,36.133,-9.766,-8.301,-8.789
16.602,37.109,54.688,-2.441,63.477
31.25,40.039,87.402,7.812,131.348
23.438,37.109,41.504,10.254,127.441
1.953,34.668,-110.84,2.441,66.406
3.418,37.109,-61.035,-0.977,51.27
19.531,35.645,61.523,6.348,68.848
28.32,29.785,83.984,9.766,14.648
18.555,33.203,16.602,1.953,-35.156
5.859,34.668,-71.289,-4.395,11.23
9.766,31.25,-30.273,-5.371,64.941
18.066,31.25,46.387,-1.465,43.945
26.855,31.25,88.867,3.418,-6.836
26.855,32.227,96.191,5.371,-28.809
12.695,37.109,0.488,7.324,33.203
6.348,37.109,-48.34,5.859,50.781
20.02,35.645,44.434,4.395,7.324
31.25,37.598,34.18,7.324,34.668
20.02,38.086,42.969,5.859,46.387
6.836,43.457,28.32,2.441,-6.348
2.441,42.969,-40.527,-2.93,-11.23
15.625,40.039,45.41,2.93,42.969
30.273,42.969,107.422,4.883,33.203
29.785,46.387,76.66,7.812,-48.828
13.184,45.898,-54.199,5.371,-60.059
4.883,45.41,-60.547,-2.93,-8.301
18.066,44.434,-13.184,-3.418,24.902
29.297,41.016,68.848,0.488,17.09
26.855,41.016,104.492,5.371,22.949
13.672,42.969,-94.238,-1.465,-5.859
0.488,41.504,-104.98,-2.93,-34.18
4.395,38.574,50.781,0.977,27.344
23.926,42.48,59.57,2.93,31.738
32.227,42.48,59.57,13.184,-1.465
23.926,41.504,-7.324,14.648,29.785
9.277,42.48,-91.797,9.766,62.5
3.906,41.016,-17.578,6.836,78.613
13.184,43.457,42.969,11.23,44.434
21.484,41.992,72.754,8.789,-9.277
12.695,40.527,12.695,0.488,25.391
-7.324,41.504,-107.91,-1.465,69.336
-10.254,38.086,-47.363,0,82.52
7.324,37.598,56.152,3.906,78.125
22.461,39.062,99.609,4.395,92.285
15.625,34.668,29.297,4.395,89.844
-4.883,33.691,-95.703,-3.906,44.434
-2.93,37.109,-21.973,-7.324,48.34
10.742,37.109,75.684,-3.906,79.59
16.113,32.227,87.891,-1.465,55.176
6.348,29.297,38.574,4.883,30.762
-4.395,33.691,-65.43,2.441,31.25
-6.836,34.18,-41.016,-0.488,25.879
0.977,33.691,31.738,4.883,13.184
17.578,34.668,101.074,7.812,-0.488
14.648,31.25,77.637,6.348,72.266
0.977,32.715,-84.961,4.395,59.57
3.418,37.109,-74.219,-3.418,-20.996
12.695,38.086,45.898,-8.301,-20.02
19.531,41.504,95.703,-5.371,-7.812
14.16,42.969,80.078,-0.488,-9.766
8.789,41.016,-62.012,1.465,-16.602
3.906,41.504,-93.262,0.488,-42.969
4.883,44.434,63.965,5.859,-11.719
24.902,42.969,69.824,5.371,42.48
30.762,35.156,45.898,0.977,12.207
21.973,34.668,10.254,4.883,5.859
7.812,41.016,-65.918,2.441,17.09
14.16,44.922,34.668,-4.395,-16.113
31.738,39.062,147.949,-1.465,-0.977
27.832,36.133,121.582,2.441,71.777
13.672,37.598,-56.641,4.883,60.547
11.23,30.273,-85.449,2.441,19.531
13.672,25.879,8.789,-3.906,16.113
25.879,32.227,84.473,-1.465,11.719
31.25,38.574,103.516,-0.977,36.621
16.113,40.039,-4.395,-3.418,59.082
5.859,37.598,-111.328,-9.766,64.941
11.719,37.598,-49.316,-14.16,11.719
26.855,40.527,34.18,-7.324,6.836
32.715,35.645,86.426,0.488,44.434
20.996,33.203,57.129,2.93,14.648
8.789,32.227,-93.262,-1.953,-29.785
7.812,33.691,16.602,-4.883,12.207
18.066,35.156,37.109,0.488,64.941
21.973,34.18,10.254,5.371,41.992
10.742,36.133,67.383,1.953,24.414
1.953,37.598,-37.598,-0.977,12.695
3.418,33.691,-10.742,5.859,13.672
1.953,30.273,53.223,3.418,10.742
-1.953,27.344,56.641,0.977,14.648
-1.465,28.32,32.227,1.465,-3.906
-4.883,37.598,-30.762,-0.977,38.086
-5.371,34.668,-26.855,3.906,40.527
7.812,32.715,41.016,10.742,57.617
25.391,34.668,91.309,11.23,85.449
27.832,32.227,57.617,9.277,59.57
13.672,30.762,-94.238,8.301,12.695
8.301,33.203,-49.316,4.883,-6.348
17.578,38.574,53.711,-2.93,59.57
36.133,38.574,99.121,3.418,28.32
39.062,39.062,90.332,9.277,2.441
21.973,38.574,-83.984,5.859,22.949
12.207,36.621,-68.359,3.418,-29.297
10.742,34.18,66.406,0.977,-30.762
24.414,31.25,155.762,-0.977,-0.977
17.09,32.227,131.348,-3.418,-0.488
-13.184,32.227,-39.062,-5.859,-15.137
-11.719,30.273,-57.129,-1.465,11.23
-2.441,24.902,36.133,-1.465,94.238
3.906,20.508,91.309,-0.488,62.012
4.395,21.484,117.188,4.395,57.129
-7.324,24.414,-20.508,-1.465,89.844
-15.137,29.297,-94.238,-7.812,87.402
-12.207,32.227,-18.066,-1.465,65.43
-5.371,36.621,87.891,9.766,59.082
-1.465,36.621,91.309,7.812,39.551
-4.395,37.109,-32.715,4.883,-12.695
-13.184,36.621,-71.289,0.488,37.598
-5.371,39.062,-7.812,-7.812,44.922
16.113,41.016,66.406,-5.371,-11.23
20.508,39.062,108.398,-1.953,32.715
10.254,43.457,-13.184,-3.906,47.363
0.977,42.969,-101.074,-8.301,15.625
13.184,41.504,-11.719,-6.348,5.371
26.367,42.48,36.133,-4.883,1.465
31.25,41.504,63.965,1.465,23.438
25.879,40.527,41.504,-0.977,51.758
13.184,37.598,-88.379,-1.953,65.43
15.625,39.062,-33.691,-1.953,53.223
27.832,39.551,43.945,-2.93,37.598
38.086,38.574,20.02,2.441,15.137
29.297,42.48,49.316,4.395,72.754
12.695,38.086,-45.898,0,69.824
6.348,34.668,-72.266,-4.395,10.254
14.16,38.086,-11.719,-0.977,-35.645
26.367,37.598,47.363,3.906,-54.688
19.531,37.598,44.922,3.906,23.438
-2.441,37.598,-156.738,0.488,35.156
-7.812,38.086,-88.379,-2.441,17.09
6.836,35.645,51.27,-0.977,26.855
21.973,38.086,78.613,2.93,33.203
30.762,42.48,48.34,1.465,29.785
10.742,39.062,-108.398,2.93,-12.207
-5.371,40.039,-57.617,-1.465,50.293
7.812,36.133,35.156,-10.254,52.734
20.02,33.203,72.266,-2.441,-11.719
13.672,33.691,70.312,-0.977,20.996
-1.465,33.203,-73.242,-6.348,55.176
-0.488,35.645,-108.398,-3.906,38.574
14.16,42.969,-33.203,2.93,27.832
33.203,45.898,92.773,10.742,41.016
36.133,41.992,95.703,16.113,60.547
17.578,42.48,-55.176,16.113,43.457
0.488,38.574,-83.496,12.695,72.266
1.953,34.668,-2.93,11.719,49.316
20.996,33.203,97.656,12.207,42.48
23.926,27.832,103.027,14.16,125
9.277,25.391,-62.012,12.207,40.527
-2.441,26.367,-91.309,4.395,-13.672
5.859,27.832,19.043,4.883,20.508
26.855,31.25,65.918,11.23,27.344
27.832,28.32,65.43,9.766,61.523
14.16,27.832,-37.598,7.324,33.691
9.277,35.645,-100.098,5.859,14.16
7.812,36.621,-5.859,3.418,31.25
17.09,32.715,59.57,7.324,-0.488
22.949,32.715,75.684,11.23,-19.531
13.672,30.762,2.441,13.184,0
0.977,28.32,-99.609,13.184,2.441
1.953,32.715,-16.602,15.137,-21.484
21.484,34.18,63.477,17.09,33.203
20.508,30.273,70.801,11.719,46.387
5.859,31.738,50.293,9.766,3.906
1.953,31.738,-68.848,7.324,20.02
9.277,31.738,-29.297,1.953,41.504
21.973,30.762,66.406,2.93,71.289
30.762,32.227,18.555,7.812,80.078
30.762,33.691,3.906,8.789,40.527
19.531,36.621,10.254,4.883,8.301
14.648,35.645,-23.438,9.766,-7.812
23.926,30.762,21.973,16.113,-48.34
39.551,33.691,115.723,17.578,8.789
35.645,37.598,51.758,18.555,51.758
20.996,38.086,-105.469,14.16,-27.344
19.531,37.109,-88.867,9.766,-48.34
26.855,39.062,-5.371,7.812,0.488
33.203,42.48,112.305,4.883,84.473
29.297,38.086,91.797,10.742,72.266
15.625,37.598,-75.684,18.066,14.648
5.859,39.551,-71.289,17.578,41.016
15.625,36.621,21.484,14.16,45.898
25.391,33.691,81.055,13.672,0.488
22.949,36.133,95.215,15.137,20.996
12.695,41.016,-48.828,15.137,41.016
3.418,39.551,-80.566,17.09,69.824
10.254,39.551,-2.441,16.602,27.344
24.902,39.062,79.59,15.137,-5.859
29.297,37.598,69.336,12.207,13.672
17.09,38.086,-45.41,4.883,-17.09
5.859,38.086,-52.246,-0.488,26.367
6.836,38.574,-0.488,-4.395,50.781
22.949,38.086,85.449,-1.465,34.18
22.461,38.574,125.488,-0.977,4.883
3.418,38.574,-4.883,0.977,32.227
7.324,40.527,-85.938,4.395,43.945
8.301,39.062,-4.395,0.488,19.043
12.207,33.691,72.754,4.883,27.832
20.508,30.762,107.422,5.371,50.781
7.324,34.18,-12.695,5.371,4.395
-6.348,34.668,-116.699,7.324,5.371
-13.672,35.156,-5.859,6.836,-5.371
-0.488,36.133,79.59,8.789,-1.465
16.113,34.668,81.543,8.301,0
1.953,36.621,49.316,6.348,8.789
-13.184,38.574,-48.828,4.883,77.148
-14.648,35.645,-12.207,8.789,62.012
3.418,32.227,52.246,11.23,-11.23
16.602,33.203,60.547,7.812,-14.648
9.277,35.156,117.676,4.395,92.773
1.465,37.109,-13.184,2.441,127.93
2.441,37.598,-74.219,1.465,35.156
9.766,37.109,53.711,3.418,40.527
32.227,36.621,55.664,9.277,81.055
29.785,32.715,41.016,10.254,-18.555
13.184,33.691,20.508,8.301,-52.734
15.137,36.621,4.883,8.301,31.25
25.879,35.156,55.664,8.301,27.832
38.086,36.133,127.93,12.207,47.363
34.668,39.062,88.379,16.602,17.578
16.602,40.039,-44.434,12.207,-9.766
12.207,37.598,-23.926,8.301,41.992
28.809,37.598,72.266,9.766,11.23
38.086,36.133,134.277,14.648,21.973
37.109,35.645,68.848,17.578,32.227
28.809,39.551,-3.418,13.672,0.977
17.578,45.898,17.09,11.23,42.48
25.879,49.316,54.199,4.395,28.32
34.668,46.387,143.555,0.488,-3.418
31.738,42.48,160.645,4.883,26.367
22.461,43.945,9.766,3.906,30.273
13.184,44.434,-44.434,-0.488,23.438
19.043,41.992,47.852,-4.883,5.371
23.438,44.434,139.16,-0.488,-1.953
21.973,45.41,164.551,4.883,36.621
13.184,45.898,3.418,-1.953,47.363
4.395,52.734,-72.754,-3.906,21.484
17.578,57.617,70.801,3.418,47.852
33.691,55.664,109.375,10.742,49.316
29.297,49.805,115.723,12.695,-13.184
10.742,49.805,98.145,3.418,-30.762
3.906,49.805,-13.672,-3.906,30.273
10.742,49.316,50.781,-0.488,35.645
28.809,50.781,62.988,4.883,17.578
40.527,51.27,97.656,8.301,-20.996
35.645,52.246,144.043,8.301,18.555
25.391,50.293,-36.621,7.324,-1.953
26.855,52.246,-12.695,11.23,-47.852
35.645,49.316,64.453,15.625,-26.367
36.133,46.387,131.836,16.113,-18.555
21.973,49.316,116.211,16.602,28.809
18.555,45.41,-28.32,20.02,57.617
18.555,44.922,16.602,25.879,67.383
19.531,44.434,70.801,29.785,70.312
28.809,41.504,107.422,28.32,70.312
24.902,40.039,104.98,29.297,32.227
17.09,43.457,-22.461,28.809,33.203
13.184,43.945,-13.672,21.484,32.227
20.02,46.387,78.125,20.508,25.879
39.551,52.246,141.113,26.367,72.266
39.062,51.27,78.613,20.996,32.715
19.531,47.363,-36.133,15.137,-0.488
10.742,48.828,-22.949,13.672,-11.719
28.32,46.875,72.266,8.789,-20.996
42.969,41.016,148.438,8.789,-25.879
29.785,41.016,137.207,8.789,-34.668
13.184,43.457,-3.906,8.789,22.949
9.766,42.48,-58.105,9.766,17.09
12.695,42.48,54.199,8.301,-7.324
22.461,44.434,139.648,11.719,43.457
24.902,43.457,103.027,11.23,-18.066
12.695,41.992,-29.297,8.789,-41.992
9.766,44.434,-89.355,7.812,17.09
15.625,45.898,10.742,4.395,14.16
24.902,44.922,116.699,5.371,-15.625
28.809,46.387,132.324,5.859,4.395
14.16,44.434,-0.488,0,69.824
0.977,43.945,-67.871,-3.906,76.66
7.324,47.852,16.602,0,19.043
18.066,39.551,104.004,3.418,-4.883
26.855,34.668,120.117,4.883,15.137
26.855,36.621,5.859,6.836,62.012
8.301,40.039,-70.312,0.488,148.926
10.254,40.527,-8.301,-0.488,99.609
26.855,41.504,28.809,8.789,22.461
30.273,44.434,44.922,14.648,-7.812
23.926,42.969,25.391,12.695,-37.109
17.09,41.504,-67.871,10.254,36.133
23.438,41.504,-20.508,11.23,44.434
38.574,40.039,51.27,12.695,32.227
43.945,41.992,25.391,15.137,44.434
36.133,43.457,66.895,15.625,62.012
23.926,41.992,-77.637,11.23,62.5
20.02,43.457,-84.473,6.348,-16.113
32.715,43.945,30.762,6.348,-50.293
40.039,41.504,28.809,5.859,-38.086
33.691,40.527,51.758,3.906,-17.09
16.113,39.551,-98.145,5.859,23.926
11.23,40.039,-55.664,1.465,77.148
27.344,44.434,28.809,-3.906,45.898
40.527,41.016,49.805,0.488,-6.348
45.898,40.039,46.387,4.883,16.602
30.762,41.992,-104.98,-1.465,28.809
15.137,36.621,-73.242,-8.301,87.402
19.531,36.133,-1.465,-4.395,101.562
31.738,40.527,60.059,-3.418,74.707
30.273,38.574,38.086,-0.488,53.711
16.602,37.598,-115.723,2.441,26.367
14.648,42.48,-122.07,2.93,21.973
20.996,44.434,-24.902,3.906,-24.902
31.25,44.922,122.07,4.395,30.762
34.668,43.945,96.68,1.953,90.82
30.762,42.48,-91.309,3.418,50.781
23.438,40.527,-117.188,3.418,38.574
25.879,42.48,-3.418,-0.488,45.898
37.598,43.945,84.961,6.836,47.852
36.621,43.457,75.684,9.277,47.363
28.809,43.457,-71.289,9.766,25.879
19.043,42.48,-127.93,7.324,5.859
23.926,41.504,-36.133,9.277,-11.23
38.086,41.504,41.992,11.719,5.859
44.922,41.992,70.801,8.789,53.711
29.785,42.48,-45.898,6.836,33.691
8.301,43.457,-117.188,-0.488,5.859
23.438,45.898,-27.344,-2.93,9.766
45.898,48.34,54.688,2.441,-19.043
54.199,42.48,81.543,8.301,31.25
41.504,40.039,-16.113,0.977,82.52
23.438,41.992,-144.531,-9.277,4.395
26.855,41.016,-41.016,-12.207,-19.531
40.039,41.992,27.832,-10.742,6.836
48.828,42.48,39.551,-4.883,-15.137
51.27,41.992,39.551,0,14.16
40.039,41.016,-109.375,-0.488,34.668
30.273,39.062,-69.824,0.488,17.09
42.969,42.969,36.133,4.395,17.578
48.828,45.898,-11.719,7.812,-6.836
45.41,41.016,27.832,12.207,9.766
39.062,37.109,-26.855,11.23,52.246
28.32,36.621,-89.355,10.254,12.207
26.367,39.062,-5.859,10.742,5.859
31.738,38.574,37.109,13.672,26.855
28.32,35.645,52.246,15.137,14.16
16.602,34.668,-96.191,11.23,34.668
12.207,36.621,-135.254,7.812,78.125
20.996,36.133,-14.16,8.789,42.969
34.668,34.668,104.004,9.766,40.527
28.32,36.621,35.156,8.789,21.973
4.883,36.621,-119.629,5.371,9.277
3.906,39.551,-89.355,10.254,105.469
11.719,42.969,-36.621,14.648,127.93
19.531,40.527,60.547,12.207,106.934
19.531,39.062,54.688,13.184,83.496
4.395,41.016,-124.023,9.277,28.809
-1.953,44.434,-128.418,9.766,10.742
7.812,43.457,-20.02,12.207,41.016
22.949,43.945,34.18,17.09,42.969
34.668,50.293,52.734,30.762,29.785
25.879,48.34,-57.129,34.18,26.367
12.695,46.387,-136.719,26.855,-21.484
19.043,46.875,-34.18,25.391,-40.527
32.715,44.922,60.547,31.738,-17.09
36.133,47.852,69.824,37.109,28.32
26.855,44.434,-48.34,33.691,22.461
15.625,38.086,-155.762,23.438,-21.484
19.043,40.527,-64.453,19.531,-33.203
27.832,39.551,71.289,19.043,42.48
25.391,36.621,46.875,13.184,64.453
7.324,41.016,-85.449,5.859,31.25
-5.371,39.062,-146.973,-2.441,84.473
-7.324,35.645,-71.777,-5.859,65.918
4.395,37.598,1.465,-1.465,-3.418
9.766,38.574,55.176,2.93,11.719
1.465,38.086,-35.156,0.977,13.672
-3.906,39.062,-160.645,-1.953,-22.461
-8.789,37.598,-65.43,-1.953,25.391
1.465,35.156,14.16,-0.977,40.039
16.113,34.18,42.969,2.441,57.617
17.578,36.133,-19.043,2.93,56.641
7.812,38.086,-147.949,0.488,8.789
4.395,40.039,-82.52,0.977,51.27
20.996,44.922,-2.441,0.488,40.527
37.598,49.316,35.156,4.395,-9.277
41.504,48.828,13.184,14.648,45.41
17.578,39.551,-132.324,4.883,80.566
-3.418,35.156,-124.512,-9.277,28.32
20.02,45.41,3.906,2.93,42.969
34.668,46.875,63.477,14.16,62.988
27.344,39.551,4.883,13.184,5.371
20.508,41.992,-133.301,19.043,-13.184
11.719,43.457,-122.07,20.02,13.672
16.602,42.969,-16.602,18.555,12.695
32.227,45.41,58.105,27.344,-10.254
34.18,43.945,25.879,28.32,-41.016
23.438,43.457,-103.516,18.066,-6.836
15.137,46.387,-129.883,8.301,20.508
18.555,42.969,-15.625,6.348,13.672
30.273,41.504,81.543,14.16,47.363
27.344,38.086,30.273,13.672,-1.953
15.625,32.227,-83.008,6.836,-11.719
9.766,34.18,-106.934,3.906,41.504
9.766,41.016,-18.555,0.977,31.738
21.973,43.945,78.125,2.441,33.203
31.25,41.504,62.5,5.371,43.457
20.02,42.969,-51.758,9.766,58.594
7.812,45.41,-126.465,8.789,42.969
19.043,42.48,-25.391,7.324,17.578
37.109,39.551,77.148,11.23,8.789
44.922,43.457,79.59,14.648,-18.555
36.621,44.434,-0.488,16.113,52.246
26.367,41.504,-101.074,18.066,70.312
30.762,42.969,-25.391,17.09,30.273
44.922,43.457,55.176,18.555,33.691
55.176,43.457,87.891,20.508,32.227
52.246,44.434,3.418,20.02,26.855
40.039,43.945,-115.234,17.578,8.789
34.18,44.434,-30.762,18.066,11.23
49.316,41.992,50.781,15.625,3.418
57.617,42.969,104.492,17.578,-1.465
46.387,41.504,28.32,22.461,-12.207
33.691,41.016,-100.098,21.973,-0.488
34.18,42.48,-31.738,20.508,35.645
46.387,40.039,47.852,15.625,26.855
54.199,41.504,99.609,17.578,38.574
40.039,44.434,43.457,17.09,36.133
23.438,42.48,-87.891,8.789,24.902
21.484,39.551,-60.547,1.465,56.152
33.203,40.039,28.32,-1.465,19.043
44.922,40.527,100.586,-1.953,-18.555
44.434,40.039,64.453,1.953,-0.488
30.762,41.504,-74.219,2.441,62.988
25.879,41.504,-92.285,-2.93,78.125
38.574,39.551,15.137,-0.977,28.32
44.922,41.504,107.422,4.883,23.926
40.039,41.504,56.152,7.324,26.367
24.902,41.992,-106.445,4.395,-28.32
19.043,45.898,-91.309,0.488,-21.973
23.438,47.363,18.555,1.465,7.812
35.645,44.922,107.91,8.789,14.648
37.109,41.504,63.965,9.277,6.348
21.973,43.457,-92.285,5.859,-29.785
13.672,42.48,-96.191,9.277,5.859
16.602,41.016,-10.254,15.137,27.832
27.344,43.945,77.148,19.043,15.625
40.039,46.387,84.473,26.367,52.246
31.738,39.551,-58.105,30.273,29.785
22.461,32.227,-106.445,21.973,57.617
35.645,36.621,-2.93,17.578,64.941
49.805,40.039,19.531,22.949,-11.719
48.34,41.016,45.898,23.926,11.719
31.25,41.992,0,18.555,13.184
16.113,43.457,-125.977,11.719,16.113
16.602,39.062,-38.086,12.207,-1.953
34.668,36.133,28.809,14.16,-15.625
47.363,40.039,-0.977,17.578,23.926
34.18,39.551,9.277,17.578,26.367
18.066,39.551,-77.148,14.16,16.113
12.695,40.039,-43.457,10.742,30.273
14.648,38.086,70.801,12.207,78.125
20.02,35.156,-2.93,7.324,64.453
11.719,39.062,-39.551,-0.977,-3.906
-4.395,44.922,-29.785,0,-6.836
3.418,45.41,-19.043,-4.395,33.203
14.648,45.41,44.922,-5.371,29.785
12.695,41.992,82.52,-4.883,34.18
5.371,40.039,35.156,-6.348,80.078
-7.812,38.574,-114.258,-14.648,47.852
-11.23,39.062,-68.848,-23.926,17.09
11.719,49.805,40.039,-14.648,26.855
20.02,49.316,84.961,-13.672,5.371
-14.16,41.504,53.223,-41.504,13.184
-30.273,49.316,-78.613,-51.27,6.836
-29.785,55.176,-75.684,-49.316,-1.953
-37.109,50.293,52.734,-61.035,64.453
-46.875,46.387,116.211,-77.148,85.449
-57.129,40.527,67.383,-84.961,51.27
-76.172,30.762,-72.266,-87.402,55.664
-85.938,31.738,-97.656,-89.355,36.133
-82.52,41.504,22.949,-101.562,30.762
-68.359,45.898,140.137,-106.934,73.242
-62.5,44.434,92.285,-96.191,47.852
-88.379,38.574,-74.707,-107.422,-42.48
-114.746,34.18,-83.984,-123.535,-35.645
-115.234,39.551,15.137,-137.695,-29.785
-106.445,45.41,136.719,-142.578,24.414
-101.074,49.316,114.746,-142.09,70.801
-113.281,50.293,-31.25,-148.438,78.125
-134.766,53.223,-90.82,-147.949,75.195
-133.301,60.547,-26.855,-161.133,-21.484
-105.469,60.059,114.746,-158.203,4.395
-101.562,59.082,124.023,-147.949,59.57
-128.906,62.5,-15.625,-162.598,62.012
-137.207,64.453,-84.961,-165.039,34.668
-115.723,67.871,29.785,-155.762,24.414
-88.379,69.336,77.637,-142.578,46.875
-94.727,61.035,80.078,-141.113,47.363
-118.652,54.688,68.359,-146.484,42.48
-121.582,53.711,-54.199,-141.602,67.871
-109.863,54.199,-11.23,-132.324,20.508
-92.773,52.734,79.102,-127.93,14.16
-74.219,49.805,42.969,-118.164,45.898
-76.172,53.711,23.926,-104.98,11.719
-77.148,53.711,-18.555,-98.145,32.227
-63.477,52.246,-6.836,-84.473,41.992
-51.758,49.316,61.035,-74.219,-8.301
-31.738,41.992,119.629,-59.57,-21.973
-20.508,38.086,70.312,-39.551,24.902
-18.066,42.969,-83.008,-31.25,1.465
-6.836,45.41,-39.062,-22.949,-41.992
9.766,40.039,82.031,-10.742,-10.254
19.531,36.621,135.742,0.977,40.039
28.32,42.48,75.195,17.578,29.785
26.367,43.457,-66.895,24.414,-1.465
24.902,42.48,-41.504,19.531,51.27
45.41,43.457,45.898,31.25,41.016
51.758,39.062,126.953,41.504,14.16
50.293,36.133,100.098,43.945,31.25
42.969,35.645,-63.477,51.27,6.348
41.504,34.18,-56.641,54.688,24.414
53.711,33.691,54.199,63.477,40.527
66.406,31.738,139.648,71.777,33.203
65.918,27.832,78.125,79.102,-29.297
49.316,28.32,-47.852,83.008,-2.93
43.945,31.25,-60.059,77.637,65.918
52.734,30.273,39.062,77.148,56.152
69.824,31.738,60.059,84.961,19.531
78.613,35.645,11.719,89.844,-28.32
68.848,38.574,-9.766,94.727,-61.035
62.5,39.551,-14.16,88.379,-27.344
65.43,37.598,52.246,78.125,24.414
83.496,39.062,116.699,82.031,17.09
86.914,37.598,117.188,83.496,22.461
70.312,40.039,-14.648,75.684,64.941
64.941,40.039,-111.816,69.336,85.449
68.359,37.109,-22.949,70.312,36.621
78.613,37.109,49.316,71.777,-2.441
81.543,39.062,57.129,72.754,-44.434
74.707,38.574,6.836,75.684,26.367
67.383,34.668,-103.027,75.684,74.707
61.035,33.203,-36.133,77.148,47.852
74.707,34.18,59.082,86.426,58.594
86.914,33.691,93.75,92.285,33.691
80.078,31.25,18.555,88.867,3.906
74.219,35.156,-116.211,83.008,26.367
78.125,38.086,-43.457,78.125,53.711
87.402,35.156,-5.371,76.172,48.34
89.844,33.691,-29.785,73.73,24.414
80.078,33.691,28.809,73.242,24.414
63.477,34.18,-121.582,73.242,14.648
52.734,34.668,-76.172,63.477,-12.695
67.871,35.156,37.598,60.547,-10.254
80.078,33.203,54.688,62.012,-17.09
71.289,33.691,30.273,56.641,42.969
62.5,36.133,-137.207,52.246,72.754
58.594,38.086,-82.031,49.316,39.551
64.941,39.062,12.207,54.199,83.008
71.777,35.645,46.387,58.105,93.75
68.359,34.668,16.113,54.199,57.617
62.012,37.598,-128.906,52.246,38.086
59.082,41.504,-144.043,52.734,-9.277
66.406,39.062,-60.547,51.758,-14.16
73.242,35.156,60.059,56.641,-3.418
74.707,36.621,72.266,63.965,-15.137
66.406,40.039,-98.633,64.453,16.602
54.688,41.504,-156.738,56.152,35.645
54.688,41.504,-35.156,50.293,-23.438
65.43,43.945,2.93,50.293,30.762
71.777,42.48,-20.508,49.316,87.891
57.129,39.551,-58.105,48.34,9.277
39.062,42.48,-85.449,40.527,20.996
49.805,44.922,-30.762,37.109,43.945
65.43,42.48,43.945,36.621,-6.836
63.477,37.598,38.574,31.738,42.969
51.758,37.109,-85.938,30.273,65.43
35.156,38.086,-122.559,25.879,18.555
34.18,41.504,-41.016,22.461,12.695
51.27,41.016,35.156,25.391,37.109
59.57,39.062,67.383,27.344,38.086
46.875,38.574,-38.574,27.832,49.316
32.227,38.574,-146.484,25.879,40.527
33.203,42.969,-54.688,18.555,27.344
47.852,44.922,-2.93,21.973,15.625
52.246,44.434,53.711,28.809,-5.371
41.992,43.945,3.418,28.809,8.301
24.414,41.504,-148.438,29.785,31.738
20.508,38.086,-50.781,30.762,62.012
36.621,39.551,15.625,27.344,39.062
48.828,40.527,61.035,32.227,9.277
42.48,37.598,11.719,35.156,33.203
25.391,37.109,-144.531,27.832,8.789
19.043,37.109,-69.824,25.391,36.133
29.785,39.062,-32.715,27.832,17.578
41.992,41.016,38.086,31.25,-15.137
42.48,39.062,28.32,34.668,59.57
32.715,42.969,-152.344,38.086,13.672
24.414,40.039,-105.469,38.086,1.953
31.25,35.645,-34.668,39.551,19.043
47.363,41.992,32.715,44.434,-41.504
41.992,42.48,36.621,35.645,-11.719
22.949,42.48,-109.375,28.32,21.973
20.508,47.363,-122.559,30.762,-8.789
29.297,45.898,-11.719,31.738,-50.293
40.527,45.898,88.867,31.738,6.348
42.969,48.34,42.48,27.832,56.152
28.32,49.316,-117.188,23.926,32.715
14.16,46.387,-121.094,20.508,55.664
18.555,45.898,-39.062,17.09,25.391
32.227,45.41,78.125,21.484,37.598
35.156,39.062,57.617,22.949,75.195
24.414,38.574,-139.16,14.16,21.484
15.625,40.527,-164.062,8.301,10.742
20.02,40.039,-28.809,10.742,22.461
28.809,40.527,6.836,13.672,44.434
38.574,44.434,-6.836,17.09,31.25
28.32,42.969,-37.598,18.066,-27.832
16.113,36.133,-115.723,14.648,-24.902
18.066,41.016,-43.945,10.742,0.488
29.785,42.969,-53.223,7.812,-18.066
33.691,41.992,2.441,12.207,20.508
20.02,43.945,7.324,18.066,115.723
7.324,39.551,-209.961,10.742,125.488
9.766,39.551,-85.449,2.93,104.98
20.996,38.086,-27.832,1.953,50.781
29.785,34.18,-25.879,4.395,21.973
21.484,35.156,0.977,4.883,49.316
0.977,34.18,-203.613,0,4.395
2.93,36.133,-133.301,-7.812,-11.23
19.043,41.016,25.391,-10.742,55.176
24.902,38.574,21.973,-3.418,38.086
16.602,35.645,-61.035,3.906,39.551
-2.93,37.109,-191.895,0.977,35.156
-1.953,36.133,-148.438,1.953,5.859
22.461,39.062,-63.965,10.254,51.758
29.785,42.969,0,8.789,22.461
15.137,43.945,-28.32,4.395,20.02
0.977,41.504,-177.734,5.371,75.684
-3.906,39.062,-147.461,6.348,63.965
6.836,38.086,-78.613,6.348,32.715
20.02,39.062,-4.395,13.672,73.242
17.09,39.062,-48.34,13.672,50.293
6.348,35.645,-218.262,12.695,-37.109
3.906,33.203,-145.02,16.602,1.953
23.438,39.062,-57.129,20.02,11.719
28.809,47.852,-7.812,9.277,22.461
24.414,50.293,-55.664,5.371,14.16
22.461,46.875,-167.48,13.184,-24.414
16.113,37.598,-123.047,8.301,38.086
32.715,44.434,-79.102,12.207,15.625
47.363,51.27,-12.695,17.578,-12.695
44.922,42.969,13.184,16.113,19.043
28.32,41.992,-148.926,15.137,28.809
17.09,42.48,-214.844,5.859,-25.879
28.32,42.48,-78.125,4.395,-18.555
46.387,43.457,5.859,9.766,46.875
42.48,44.434,8.789,13.672,104.98
24.902,41.504,-143.555,16.602,65.918
14.16,41.016,-229.492,14.16,39.551
17.578,43.945,-90.82,14.648,45.41
34.18,42.48,-56.152,17.578,2.441
38.086,39.062,-18.555,13.672,9.277
26.367,38.574,-28.32,7.812,25.879
23.438,41.504,-188.965,8.301,41.016
27.832,42.969,-113.281,10.742,31.738
41.016,38.086,-77.637,10.742,25.391
37.598,38.086,-41.016,12.207,4.395
16.602,41.016,-41.016,14.16,35.156
7.324,37.598,-185.547,7.324,80.078
8.301,40.039,-122.559,1.953,54.199
23.438,42.48,-115.234,5.371,22.949
30.273,44.922,-45.898,12.695,-22.949
17.578,41.992,21.973,13.184,58.105
10.254,37.598,-186.035,9.766,56.152
16.602,37.109,-146.484,8.789,16.113
28.32,38.574,-42.48,9.766,20.996
39.062,41.016,2.93,16.602,3.906
41.504,43.457,-66.406,23.926,4.883
22.949,45.41,-185.059,22.949,25.391
6.836,48.34,-154.297,14.16,69.336
26.855,50.781,-90.82,13.184,17.578
38.574,48.828,-9.277,12.695,-22.461
20.996,42.48,-60.059,8.301,-2.93
12.207,45.898,-166.992,7.324,28.809
12.695,50.293,-112.793,4.395,55.664
14.648,44.922,-68.848,4.395,31.25
19.531,43.945,14.16,9.277,12.695
16.602,47.852,7.324,11.719,44.922
2.93,47.363,-160.645,9.766,67.871
-6.836,41.504,-159.18,3.418,67.383
0.977,42.969,-65.918,2.93,35.645
6.836,47.363,13.672,6.836,68.359
5.371,40.527,3.906,13.184,62.012
-4.395,40.039,-174.316,13.184,29.785
-21.484,44.922,-202.148,2.93,72.266
-11.719,41.504,-101.562,1.953,20.02
3.418,40.039,21.973,1.953,-26.855
6.348,44.922,48.34,4.883,48.828
-0.977,43.945,-145.508,7.324,40.527
-9.766,45.41,-215.82,9.766,5.859
-0.977,44.922,-95.215,16.602,40.527
11.23,37.598,-6.348,20.508,61.035
14.648,42.48,-16.602,22.949,-0.977
4.883,41.992,-151.855,28.32,-81.055
-11.23,39.551,-212.891,30.273,-32.715
-8.789,42.48,-110.352,24.414,32.227
14.16,44.434,-100.586,25.879,82.52
20.02,43.945,-65.918,21.484,99.609
1.465,43.457,-66.895,15.625,11.719
-7.812,43.457,-201.66,11.719,12.207
-1.953,41.016,-154.297,6.348,71.289
8.301,42.48,-95.215,9.766,41.992
7.324,44.434,-34.668,15.137,5.859
-0.977,43.945,-110.84,15.137,34.18
-7.324,45.898,-272.949,14.16,26.855
-5.371,45.41,-177.246,15.625,17.578
6.836,40.039,-104.98,20.02,11.719
9.766,37.598,-87.891,23.926,4.395
1.465,37.109,-150.879,22.461,23.926
-11.23,37.598,-243.164,19.043,59.082
-13.184,37.109,-180.664,17.578,20.02
2.441,37.598,-122.559,21.484,45.41
13.672,39.062,-95.215,28.32,36.621
18.066,37.109,-108.398,30.762,-2.441
3.906,34.668,-240.234,24.414,54.688
-8.301,36.621,-219.727,18.066,26.855
7.324,39.551,-141.113,20.508,-11.719
23.438,39.551,-56.641,27.344,20.508
20.996,37.109,-74.219,28.32,69.824
9.766,39.062,-275.879,19.531,-29.785
5.859,40.039,-240.234,13.672,-102.539
12.207,36.133,-67.871,13.672,-34.18
23.926,38.086,-43.945,10.742,4.883
22.461,41.016,-35.645,11.719,32.715
12.207,36.621,-109.375,16.113,30.762
3.418,38.086,-183.105,11.719,72.266
8.301,40.039,-98.145,7.812,64.453
28.32,37.598,-2.441,9.766,35.645
31.25,39.062,0.488,11.23,56.641
22.949,39.551,-185.059,11.719,-46.387
16.602,39.062,-178.711,10.742,-12.207
19.043,39.551,-100.586,14.16,45.41
31.738,45.41,-25.391,15.625,9.277
26.855,44.434,9.766,13.672,51.758
14.648,37.598,-132.812,12.695,24.902
11.23,34.668,-153.809,9.277,-12.695
13.672,37.109,-46.875,9.766,30.273
27.344,39.062,8.789,14.648,39.551
38.086,40.039,39.062,19.531,-11.23
28.809,39.551,-52.246,19.043,26.855
13.672,39.551,-156.738,12.207,56.641
17.578,41.992,-65.918,13.184,46.387
37.109,37.598,27.832,17.09,54.688
45.41,38.086,61.035,20.02,79.59
40.527,43.945,-60.059,20.508,52.246
32.715,38.574,-145.508,19.531,23.438
28.809,31.25,-56.152,15.625,-2.441
33.203,34.668,24.414,14.648,-16.113
32.715,33.203,72.266,19.043,35.156
23.926,33.203,-22.461,18.066,20.02
19.531,37.598,-142.578,12.207,2.441
18.066,36.133,-62.988,11.719,13.672
24.414,37.598,54.688,13.184,39.551
36.133,41.016,104.492,10.254,102.051
29.785,41.992,9.277,12.695,59.082
11.23,41.016,-145.996,13.672,-3.906
3.418,40.527,-76.172,8.301,7.812
16.602,38.086,30.762,11.719,41.504
35.156,39.551,49.805,20.508,4.883
35.156,39.551,25.391,22.461,-21.484
18.555,40.039,-107.422,17.09,36.621
11.719,43.945,-94.238,11.23,98.145
26.367,40.527,-0.977,8.789,41.992
42.48,39.551,56.152,12.207,-29.297
42.969,42.48,84.473,14.16,89.355
25.391,43.457,-120.605,7.812,83.496
19.043,43.457,-157.715,4.883,-6.348
33.691,43.945,-15.625,7.324,26.367
44.922,44.434,58.105,12.207,6.348
42.969,42.48,42.48,10.254,6.836
35.156,41.504,-94.238,8.301,73.73
22.461,43.945,-159.668,3.418,73.73
28.809,43.945,-44.434,6.348,69.336
47.363,43.457,-4.883,16.113,42.969
49.805,45.898,-89.355,20.02,-35.156
37.109,47.363,-69.336,22.949,-14.648
29.785,43.945,-104.004,24.414,16.602
34.18,39.062,-73.73,24.902,46.387
44.434,39.062,36.133,26.367,-7.324
50.293,43.457,29.785,28.809,0.488
38.086,41.992,-132.324,31.738,25.879
25.391,39.062,-208.984,24.414,1.953
32.715,36.621,-95.215,20.996,-21.973
48.34,34.18,15.625,26.367,-2.441
48.34,38.574,54.688,30.762,51.758
42.969,43.945,-65.43,30.762,61.035
36.621,46.875,-214.355,27.344,14.16
38.086,42.48,-100.586,26.855,19.531
51.758,40.039,-44.922,23.926,48.34
58.105,38.574,-25.879,20.02,16.602
42.969,34.18,-65.918,20.508,29.785
35.156,37.109,-217.285,15.137,53.223
36.621,41.992,-165.527,11.23,10.254
43.457,40.039,-50.781,15.625,35.156
57.129,40.039,3.418,20.02,30.273
49.316,41.016,-44.434,19.043,56.152
34.668,41.016,-197.754,16.602,22.949
30.273,40.527,-153.809,13.672,-40.527
37.109,41.992,-22.461,14.648,3.906
39.551,44.434,43.945,20.508,67.383
37.598,42.969,-21.484,20.996,75.684
24.414,38.574,-163.086,14.648,82.52
13.672,41.016,-176.758,12.695,34.668
22.949,37.598,-58.105,7.324,-12.207
30.273,32.715,49.805,1.465,33.691
31.25,36.133,-18.555,3.418,9.766
24.414,42.969,-152.832,2.441,-11.23
16.602,44.434,-131.348,-0.488,-12.207
25.879,42.48,-12.695,-4.883,17.09
41.992,40.039,69.824,-2.93,53.223
45.898,40.039,41.504,3.418,56.641
40.039,40.039,-125.977,2.93,17.578
28.32,42.48,-132.324,-1.465,-11.23
32.227,44.434,20.02,-3.906,47.363
50.293,42.48,25.391,-4.395,45.898
51.758,43.945,31.738,-3.906,35.645
39.551,43.945,-14.648,1.465,45.898
32.227,44.922,-122.559,2.93,21.484
51.27,46.875,-10.742,11.719,-9.277
78.613,44.922,51.27,29.297,44.922
63.965,36.133,-37.109,26.367,35.645
23.926,30.273,-13.672,-1.465,14.16
6.348,31.738,-48.34,-7.324,41.016
19.531,36.133,-47.852,6.348,41.504
19.043,33.691,62.988,0,53.223
19.043,27.832,68.848,5.371,40.527
15.137,26.367,-61.523,8.789,28.32
-3.906,19.531,-155.762,-1.953,15.625
-1.953,19.043,-71.777,5.371,41.992
14.648,17.578,22.949,8.789,51.758
32.227,17.578,71.289,11.23,-13.184
27.832,20.02,-3.906,21.484,-39.551
0.977,20.508,-127.93,13.184,-7.324
3.906,21.484,-53.223,16.602,36.621
27.832,23.438,-10.254,22.949,44.922
44.434,25.391,46.387,29.297,22.461
39.551,25.879,52.734,29.785,25.879
20.02,27.832,-110.84,27.344,29.297
13.184,23.926,-64.941,23.438,17.09
29.297,26.367,21.973,18.555,36.621
37.109,37.109,34.668,20.996,-6.836
32.715,31.738,45.898,23.438,-33.691
24.414,24.902,-33.203,22.949,48.828
17.578,28.809,-45.898,16.113,75.684
28.809,31.25,14.16,17.09,1.465
39.551,33.691,13.672,23.926,-34.668
32.227,33.691,84.473,20.02,48.828
16.113,34.18,9.766,12.695,24.414
12.695,36.133,-56.641,15.625,3.418
30.273,32.715,36.621,20.02,59.57
40.039,28.809,154.297,18.555,42.969
43.945,32.715,116.699,21.484,48.34
30.762,35.156,-102.051,23.438,65.918
7.324,33.203,-81.543,21.484,8.301
15.137,33.203,83.984,24.414,14.648
30.273,32.227,134.766,27.344,20.996
27.832,31.738,134.277,27.344,47.363
10.742,35.156,-5.859,29.297,105.469
-4.395,36.133,-104.004,26.855,64.941
4.395,34.668,-17.578,20.508,-5.859
21.484,36.621,101.074,21.484,-20.02
21.973,37.109,122.559,23.926,-8.789
5.859,37.109,-18.555,20.02,8.789
0.977,34.668,-131.836,14.16,17.578
9.766,32.715,-32.227,12.695,43.457
9.766,32.227,117.676,9.277,94.238
17.578,37.598,136.23,16.602,54.199
17.09,42.969,-21.484,22.461,29.785
8.789,41.992,-139.16,14.648,23.438
7.324,35.645,-32.227,11.719,4.395
24.414,41.016,46.875,15.625,-3.418
42.48,41.992,94.727,17.09,-2.93
38.086,31.25,14.648,18.555,48.34
29.785,36.133,-137.695,18.066,40.039
16.113,37.109,-54.199,7.812,12.695
12.695,36.133,-1.465,3.906,-26.367
23.926,40.039,28.809,9.766,-22.949
20.508,39.551,11.719,9.277,10.742
2.93,36.621,-134.766,6.348,23.438
6.348,34.18,-89.355,9.766,16.602
22.949,35.645,29.297,15.625,-10.742
37.109,39.551,73.73,19.043,40.527
33.691,43.457,-1.953,18.555,67.383
13.672,41.504,-148.438,17.09,40.039
11.23,40.527,-122.559,11.719,4.395
27.344,40.527,-14.648,11.719,-6.836
45.41,39.062,65.918,17.09,19.043
41.992,39.551,5.371,15.137,50.781
21.484,41.504,-186.035,6.348,30.273
10.742,45.41,-180.664,2.93,-16.602
18.066,47.852,-31.25,2.93,12.695
37.109,48.34,48.34,8.789,66.406
38.086,43.945,-3.418,9.766,47.852
20.02,40.039,-163.086,7.812,50.293
13.672,39.551,-210.938,8.789,3.418
20.996,48.34,-57.617,6.836,21.973
36.133,47.852,-47.363,12.695,35.156
37.109,40.527,-62.988,15.625,-4.395
21.484,41.992,-80.566,11.719,11.23
15.137,43.945,-180.664,8.301,13.672
21.973,42.969,-116.211,13.184,44.922
24.902,42.969,-62.012,18.066,79.59
28.32,44.434,-109.863,17.09,74.219
23.438,41.504,-99.609,15.625,53.223
11.719,35.645,-154.785,13.184,22.461
21.973,33.203,-120.605,18.555,21.484
33.691,38.086,-26.367,13.184,42.48
28.32,47.363,-28.32,2.93,5.859
19.531,45.898,-110.352,2.93,27.832
13.184,39.062,-224.609,6.348,5.859
19.531,39.062,-129.395,12.207,1.953
34.18,42.48,-27.832,13.184,12.207
38.086,43.457,-26.855,20.508,-2.93
29.297,39.551,-105.957,16.602,31.738
22.949,39.551,-154.785,13.184,71.289
24.414,43.457,-103.027,13.184,77.148
40.527,41.504,-58.105,8.789,47.852
49.316,41.016,26.855,11.719,62.012
39.551,41.504,-42.969,9.277,52.246
30.762,39.551,-201.66,7.324,11.23
33.203,42.969,-122.07,6.836,-9.277
37.109,38.086,-21.973,7.324,44.922
39.062,36.621,41.504,9.766,68.848
37.598,42.48,-16.113,9.277,1.953
20.02,42.48,-186.035,3.418,22.949
17.09,42.969,-118.652,-1.953,35.645
28.32,42.48,12.207,-5.859,13.184
28.809,44.922,85.449,-1.465,26.855
17.578,44.434,38.574,-2.93,25.391
6.348,40.527,-127.93,-10.254,39.551
2.93,40.039,-110.352,-11.23,56.152
15.625,36.133,-16.602,-6.348,-10.254
27.832,37.109,95.215,2.441,46.875
27.832,37.109,52.246,7.324,78.125
15.137,32.227,-110.84,1.465,29.785
6.348,29.785,-147.461,0.977,31.738
15.625,31.25,-47.852,4.883,6.836
28.32,34.18,112.793,6.836,23.438
30.273,33.203,90.332,12.207,35.156
13.184,33.203,-88.867,4.395,-34.668
7.812,36.133,-116.699,0,-42.48
20.508,36.133,17.09,9.277,-33.691
39.551,37.109,45.41,13.184,-40.039
48.34,34.18,105.469,12.695,32.715
34.18,28.32,69.824,13.184,52.734
21.973,28.809,-80.078,10.742,43.945
33.203,31.738,4.883,10.742,64.941
51.758,37.109,90.82,15.625,36.133
53.223,38.574,91.309,17.578,40.039
40.527,37.109,-27.344,16.113,44.922
21.973,38.086,-91.797,12.207,51.27
19.043,41.504,56.152,3.906,73.73
32.715,41.992,60.547,5.859,20.996
38.086,41.504,58.105,5.371,16.113
25.391,41.016,110.84,0,69.824
16.602,41.504,-47.852,1.953,39.062
16.113,42.969,-1.953,4.395,38.086
22.461,38.086,109.863,3.906,32.715
28.809,35.645,140.625,4.883,8.301
26.367,37.109,33.203,7.324,-2.441
21.484,37.598,-113.77,3.906,-28.809
26.367,39.551,16.113,3.906,-8.789
36.133,40.039,134.766,7.812,28.809
43.457,45.898,147.949,8.789,34.18
36.133,43.945,62.012,6.348,27.344
25.391,36.133,-72.754,6.348,29.297
25.391,39.062,32.715,9.766,34.668
35.645,38.086,93.75,10.254,24.414
42.48,43.945,136.719,9.766,29.297
31.738,43.945,110.84,5.859,17.578
14.648,40.039,-55.176,1.465,-4.395
5.859,44.922,-27.832,-0.977,10.742
23.926,39.551,60.547,0.977,10.742
48.828,32.227,158.203,8.301,-29.297
49.316,33.691,168.457,12.207,2.441
32.715,36.621,-28.809,7.324,17.578
16.113,42.969,-44.434,5.371,-41.016
20.508,38.574,90.82,4.395,-12.695
33.203,28.809,144.531,7.324,22.461
26.855,28.809,134.277,8.789,4.395
14.16,33.691,10.254,6.348,47.363
15.625,40.527,-50.293,10.254,38.086
17.09,43.945,48.34,9.277,-20.02
19.531,45.41,143.555,9.766,22.461
25.879,46.387,125,14.648,31.738
19.531,41.504,-8.789,12.695,31.738
15.137,38.574,-70.801,5.859,15.625
29.785,42.969,57.129,6.836,2.93
32.715,47.852,68.848,11.23,1.465
13.672,44.922,96.68,7.812,-14.648
-4.883,42.969,87.402,4.395,40.527
-12.207,43.945,-83.496,3.906,44.434
-8.789,40.527,0.488,-0.977,68.359
-0.977,36.133,57.617,-7.324,24.902
6.348,36.621,109.863,-3.906,23.926
-3.418,37.598,1.953,-6.836,67.383
-15.137,38.086,-165.039,-16.113,62.5
-13.672,40.039,-31.25,-23.438,53.711
-18.555,36.621,56.152,-31.25,31.738
-26.367,31.25,-2.441,-31.25,56.641
-28.32,36.133,8.789,-29.785,30.273
-49.805,47.852,-68.848,-55.664,-12.695
-69.336,49.805,-60.059,-80.078,10.254
-72.266,40.527,53.711,-91.309,45.41
-72.754,33.691,89.355,-93.75,52.246
-86.914,36.621,-15.137,-95.703,57.129
-110.84,44.434,-159.18,-120.117,45.898
-109.375,50.293,-110.84,-135.742,17.09
-92.285,51.758,-27.344,-123.047,9.277
-94.238,48.34,19.531,-120.117,-30.762
-113.77,47.363,32.715,-135.254,-20.02
-127.93,52.246,-101.562,-138.184,-6.836
-145.996,53.223,-99.121,-148.438,9.277
-144.043,53.711,2.93,-151.367,44.434
-119.629,56.152,71.777,-135.742,111.816
-130.371,57.129,2.441,-147.461,56.641
-151.367,59.082,-157.715,-158.203,-39.062
-139.16,60.547,-111.328,-159.18,12.207
-120.117,60.547,-13.672,-150.879,28.809
-105.469,59.082,34.668,-142.09,-37.109
-99.121,61.523,7.812,-131.348,-32.715
-117.188,61.035,-103.027,-128.418,18.555
-129.395,59.082,-111.816,-133.301,79.59
-107.91,66.406,-22.461,-114.746,83.008
-89.355,62.988,83.008,-110.352,14.16
-71.289,58.105,88.379,-95.215,59.57
-80.566,64.941,-81.543,-78.125,104.98
-98.145,60.059,-154.785,-84.473,72.754
-70.312,56.152,-18.066,-72.754,37.598
-32.227,59.082,-8.301,-51.758,16.602
-28.809,55.176,26.855,-42.48,-15.137
-36.621,55.176,38.574,-29.785,56.152
-30.762,51.27,-156.25,-23.438,54.688
-13.184,44.922,-55.176,-17.09,-70.312
12.695,50.293,140.625,3.418,-8.301
24.414,51.27,124.023,21.484,37.109
19.531,48.34,-31.25,29.297,44.434
17.578,47.852,-124.023,31.738,77.637
31.25,47.363,-25.879,41.992,39.062
60.547,47.363,52.734,53.711,-5.859
74.707,40.527,105.957,55.664,-1.465
73.73,39.062,17.09,56.152,42.48
70.312,41.504,-131.348,56.641,14.648
68.848,39.551,-41.504,58.594,-7.812
82.031,39.062,33.203,66.895,51.27
90.332,37.598,101.074,75.195,82.52
79.59,35.156,41.016,73.73,93.262
68.359,33.203,-123.047,66.406,70.312
70.312,32.227,-64.453,68.359,15.625
83.496,31.25,31.738,69.824,49.805
95.215,32.227,78.613,71.289,69.336
90.82,35.645,-9.766,72.266,-26.855
66.406,32.227,-124.512,65.918,-36.133
60.547,29.785,-16.602,63.477,37.598
78.613,32.715,33.691,67.871,68.359
87.402,29.785,60.547,72.266,33.203
78.613,27.832,48.34,76.172,34.668
68.848,31.738,-104.004,74.707,28.809
72.754,28.809,-74.219,73.242,16.602
87.402,26.855,70.312,73.73,63.477
97.656,29.297,58.594,70.312,106.445
94.238,34.18,54.199,72.754,74.707
82.52,37.598,-19.043,73.73,23.926
79.102,35.645,-86.426,70.312,-7.812
84.473,35.156,23.926,73.73,-5.859
90.332,36.621,75.684,76.66,40.527
81.543,35.156,96.68,72.266,57.617
65.43,33.203,-37.598,62.5,33.691
57.617,35.156,-134.766,51.27,35.156
67.383,37.109,14.648,46.387,46.387
76.66,35.645,63.965,43.457,-16.113
71.777,35.156,107.422,40.527,40.527
61.035,33.691,36.621,42.48,94.238
52.734,30.762,-99.609,43.945,45.898
61.035,30.762,-9.277,43.945,33.203
86.914,32.715,95.215,54.688,2.441
101.074,32.715,129.883,62.012,41.504
84.961,30.273,-24.414,55.664,24.414
69.336,26.367,-126.953,45.898,-63.477
73.242,28.32,-21.973,41.504,-61.035
82.031,31.25,88.379,43.457,-12.695
76.66,32.227,107.422,44.922,-4.883
67.871,32.715,22.461,41.504,16.602
60.547,34.18,-62.988,37.109,36.621
53.223,36.621,-13.672,36.621,-9.277
60.059,39.551,81.055,38.574,4.883
63.965,40.039,120.117,42.48,30.762
53.711,40.527,24.414,41.504,-48.34
42.969,44.434,-91.309,35.645,-26.855
33.203,42.48,-9.277,27.344,30.273
41.016,41.992,69.824,28.809,31.738
49.316,44.434,91.797,35.156,-0.977
38.086,41.504,29.785,31.738,-32.715
24.414,36.621,-89.355,19.043,4.395
23.926,37.109,-33.691,12.207,31.25
44.434,39.551,93.75,20.02,32.715
55.176,37.109,148.438,26.855,96.191
41.504,37.598,75.195,23.926,101.074
28.32,40.527,-76.172,24.414,22.461
26.367,38.086,-39.551,22.949,41.992
36.133,41.016,54.688,18.066,83.984
42.48,41.504,102.539,17.578,52.734
36.621,38.086,138.184,19.531,71.777
22.461,37.598,-44.922,15.625,115.234
13.672,39.551,-127.93,15.625,78.613
25.879,41.992,31.25,18.555,14.648
43.945,38.086,85.938,17.09,3.906
41.992,41.016,98.145,14.648,12.695
33.203,44.434,30.762,8.301,12.207
34.18,37.109,-82.52,4.395,27.344
38.574,33.691,21.484,5.371,33.691
43.945,37.109,63.965,10.254,-16.602
42.48,40.527,113.77,14.648,2.441
31.25,40.039,0,14.648,73.242
25.879,39.551,-120.605,16.113,29.297
28.809,36.133,-7.812,19.043,-19.043
36.621,33.203,74.707,17.09,-25.391
47.852,33.691,109.375,20.996,18.066
36.621,36.133,0,19.531,88.379
15.625,39.062,-123.535,7.324,15.137
23.926,42.48,-9.277,3.906,-26.367
36.133,40.527,77.637,7.324,-20.996
37.109,41.016,112.793,7.324,-42.48
25.391,41.992,-7.324,10.254,-17.09
10.254,38.574,-146.484,4.883,3.906
9.277,38.086,-17.578,-4.883,13.672
27.832,41.016,74.707,-3.906,11.719
37.109,41.504,100.586,-5.859,63.965
18.066,36.133,-51.27,-9.766,30.762
16.602,34.668,-121.582,-9.766,19.531
24.414,37.109,22.949,-10.254,46.387
36.133,38.574,52.246,-4.883,8.789
53.711,36.133,85.449,-1.465,14.16
46.387,36.133,54.199,1.953,43.945
23.926,41.504,-90.332,4.395,85.449
19.531,40.039,-64.453,-0.488,57.129
27.344,41.016,22.949,1.465,-0.488
28.809,42.969,91.309,0.488,0.977
26.855,36.621,58.105,-5.859,18.555
21.484,34.668,-101.562,-1.465,0.977
17.09,35.645,-101.074,-0.488,-37.598
26.855,39.062,51.758,-3.418,-10.254
41.504,41.504,152.832,-2.441,96.191
36.133,38.574,65.918,0.488,46.875
21.973,39.062,-97.656,1.953,-6.348
20.508,41.504,-68.359,-1.465,10.254
28.32,41.016,91.797,0.977,81.543
33.691,41.016,166.992,5.859,131.348
27.832,40.039,81.055,9.277,64.453
9.766,41.016,-64.453,8.301,76.172
2.441,42.969,-88.379,4.883,76.172
19.043,45.898,44.434,5.371,27.832
34.18,43.945,78.125,6.836,57.617
35.156,38.574,48.34,13.184,38.574
20.02,42.48,19.043,15.625,56.641
6.348,39.551,-73.242,4.395,58.105
13.672,34.668,8.789,3.906,20.508
28.32,35.645,124.023,14.16,-13.672
30.762,37.109,146.484,18.066,26.367
20.996,35.156,-11.23,14.16,54.199
10.742,36.621,-129.883,13.672,0.488
18.066,39.062,-20.02,16.113,0.977
34.668,41.504,98.145,19.043,37.109
39.551,38.574,104.492,19.043,50.293
33.203,36.621,-59.082,14.16,62.5
21.973,40.527,-155.273,7.812,42.969
22.949,41.504,-13.672,2.93,32.715
35.156,39.062,88.379,6.836,58.105
33.691,37.598,81.055,9.277,41.992
19.531,40.039,-30.273,7.812,-8.789
7.324,40.039,-133.301,8.301,-4.883
8.789,41.016,-47.363,7.324,-26.367
22.949,39.551,51.27,10.254,-51.27
32.715,37.598,101.074,15.625,17.578
18.555,40.527,-11.23,12.207,20.508
6.348,41.992,-160.645,7.324,-32.227
7.324,38.086,-45.898,-1.465,40.527
19.531,35.645,3.906,-4.395,13.184
29.785,39.062,28.809,0.488,-49.316
14.16,36.621,26.367,-0.488,-48.828
2.93,31.738,-129.395,1.465,-34.668
6.836,32.227,-103.516,3.418,6.348
9.277,35.645,12.695,3.906,57.129
20.508,35.156,52.734,6.348,68.848
22.461,32.715,-14.16,5.859,70.312
9.277,35.645,-163.574,3.906,81.543
12.207,39.551,-177.246,1.953,26.855
16.602,40.039,-36.133,-0.488,14.648
26.367,36.133,75.195,4.395,77.637
28.809,34.668,-15.625,8.301,50.781
10.254,37.109,-153.809,2.93,53.711
-2.93,33.203,-173.34,-5.371,88.379
1.953,32.227,-68.359,-7.324,31.738
12.695,38.574,70.801,-0.488,51.758
13.184,40.039,26.367,3.906,87.891
3.906,41.016,-151.367,0.977,72.266
-1.465,40.527,-175.781,1.953,38.574
7.324,40.527,-44.434,9.766,29.297
19.043,37.109,49.805,13.184,8.789
23.926,34.18,23.926,15.625,24.902
6.836,31.738,-119.629,12.695,53.711
-10.254,33.691,-187.988,6.836,21.484
-1.953,35.156,-47.363,5.371,54.688
20.508,33.691,-22.949,8.789,31.738
23.926,35.156,-72.754,15.137,25.879
6.348,38.086,-85.449,15.625,46.875
-1.953,38.574,-165.527,12.207,33.203
1.953,37.109,-70.312,11.23,78.125
17.09,37.109,-31.25,17.09,51.758
35.156,38.574,-82.52,26.855,47.363
32.227,41.504,-91.797,26.367,41.992
17.578,41.992,-140.625,16.602,47.363
16.602,36.133,-119.141,10.742,52.246
29.785,34.18,-27.344,11.719,6.348
36.133,37.109,45.898,17.09,46.387
20.02,32.227,-75.195,15.137,-3.906
1.953,29.785,-202.148,10.742,9.277
-1.465,35.156,-131.836,9.277,12.695
12.695,33.203,-42.48,9.766,27.344
23.926,30.762,-2.441,8.789,39.551
13.672,36.621,-57.129,13.184,-15.137
-1.953,35.156,-198.73,18.066,10.254
2.93,36.133,-149.902,14.16,34.668
16.602,36.133,-62.012,20.996,15.137
29.785,33.691,-15.625,25.879,46.387
35.156,35.156,-54.199,32.227,35.156
22.949,36.621,-163.574,33.203,41.504
5.371,39.062,-145.508,16.113,11.23
-3.418,40.039,-77.148,0,-41.992
0.977,41.016,12.207,-11.23,21.484
-0.488,42.48,-10.254,-17.578,29.297
-15.137,39.062,-189.941,-21.484,6.836
-30.273,37.598,-194.336,-33.203,-0.977
-21.973,35.645,-68.848,-38.574,27.344
-8.789,35.156,8.301,-34.18,18.066
-5.371,38.086,-20.02,-25.879,-12.695
-10.742,41.504,-204.59,-19.531,13.184
-10.254,39.551,-213.379,-20.508,17.578
5.859,40.039,-81.543,-18.555,-7.812
23.926,40.527,24.902,-14.16,-9.766
32.715,39.062,11.719,-7.324,28.809
27.344,42.969,-149.414,-4.883,70.801
19.043,42.48,-208.984,-5.859,57.617
16.602,40.039,-72.266,-2.441,79.59
35.156,40.527,12.695,4.883,39.551
49.316,41.016,4.883,8.301,2.441
39.551,41.504,-123.535,6.348,35.156
26.855,41.016,-227.539,0.488,3.906
36.621,41.016,-70.312,-1.953,25.391
51.27,43.457,-4.883,0.977,70.312
51.758,50.293,-66.895,1.953,41.992
39.551,48.34,-59.57,-3.418,38.086
32.227,45.41,-118.652,-4.395,53.711
25.391,45.898,-62.012,-4.395,42.48
39.551,43.457,-46.387,0,40.527
58.105,41.992,-15.625,3.418,21.973
42.969,38.574,-3.418,7.324,-10.254
28.809,36.621,-170.41,6.836,-18.066
34.668,42.969,-122.07,6.836,-26.367
46.387,41.016,-6.836,8.301,0
44.434,33.203,0,12.207,30.762
38.086,37.598,-53.223,20.02,10.254
32.715,40.039,-148.438,17.09,33.691
23.438,38.086,-126.953,12.207,47.852
30.762,37.109,-28.809,14.16,90.82
38.574,34.668,0.977,14.648,69.336
36.621,35.156,-46.875,18.555,-26.367
20.996,38.086,-199.707,8.301,-58.105
11.23,38.574,-176.758,-4.883,-54.688
19.043,36.621,-44.922,2.441,-22.949
32.227,37.109,30.762,6.836,-27.344
29.297,35.645,-1.465,5.371,-1.953
10.254,37.109,-218.262,-1.953,5.859
12.695,38.086,-190.43,-6.836,1.953
26.367,36.133,-33.203,-0.488,31.25
34.18,38.574,30.273,5.859,23.438
28.809,39.062,31.25,2.93,58.594
20.508,36.621,-163.086,-1.465,55.664
16.113,37.598,-194.824,-0.488,31.25
26.855,41.504,-61.035,0.488,34.18
47.852,46.875,23.438,5.371,19.043
43.457,43.457,16.602,11.23,27.832
21.484,35.645,-163.574,7.324,30.762
11.23,36.621,-236.328,-1.953,17.09
28.32,40.039,-123.535,-2.441,-30.762
50.293,39.062,32.227,4.395,11.719
50.293,39.062,12.207,2.441,7.324
29.297,40.527,-137.695,0.488,0.977
14.16,35.645,-200.684,-0.488,20.02
28.32,31.738,-74.707,-3.418,21.484
39.062,34.18,-32.715,-5.371,18.066
42.969,41.992,5.371,-6.348,30.762
37.598,42.48,-49.805,1.953,22.461
24.414,38.086,-219.238,5.859,-38.574
31.25,40.039,-77.637,4.395,30.273
43.457,41.992,-53.223,7.812,26.367
48.34,40.527,-86.426,11.719,41.992
38.086,42.48,-71.289,6.348,70.801
26.855,40.039,-141.113,-0.488,17.09
25.391,38.574,-62.012,-2.441,54.199
35.645,39.062,-26.367,0,55.664
42.969,39.062,5.371,5.859,47.852
37.598,38.086,-44.922,6.348,42.969
15.625,37.598,-195.312,5.859,16.113
12.207,37.598,-126.465,5.859,5.859
29.297,39.062,-57.129,4.395,-14.648
41.504,41.504,9.277,8.789,12.695
36.133,39.062,-13.184,10.254,50.293
17.578,40.039,-206.543,4.883,58.594
12.207,41.504,-147.949,0.977,55.664
21.973,35.645,-12.695,3.906,24.902
35.645,33.691,28.809,10.254,33.691
32.715,33.203,-10.254,13.184,75.195
16.602,36.133,-171.875,10.254,17.09
14.16,37.598,-132.812,8.789,22.461
27.832,32.715,-12.207,7.812,77.148
38.574,33.203,32.715,13.184,32.227
37.109,35.156,3.906,16.113,-30.273
24.414,35.156,-134.766,15.137,0
13.672,38.574,-177.734,17.578,9.766
22.461,39.062,-91.309,19.043,-13.672
38.086,34.668,33.691,19.531,11.23
38.086,31.738,13.184,15.137,-15.137
23.926,35.156,-135.742,13.184,-19.043
20.996,42.48,-145.508,14.16,47.363
27.832,37.598,-64.453,10.742,52.734
34.668,39.551,23.926,13.672,3.906
39.062,50.293,55.664,16.113,1.953
30.762,35.156,-90.82,14.648,36.621
15.137,30.762,-197.754,10.742,27.832
20.02,41.016,-96.68,11.719,-31.25
41.016,39.551,5.859,19.043,-56.152
42.48,46.387,25.879,23.438,24.902
33.203,49.316,-128.906,21.484,22.461
33.691,51.758,-208.008,18.066,34.668
37.109,52.734,-75.684,17.09,89.355
46.387,44.922,-55.664,14.648,15.625
52.734,41.992,-27.832,15.137,10.742
41.016,40.527,-46.387,15.625,4.883
32.227,39.062,-208.984,15.625,-4.395
38.086,37.109,-126.465,20.996,33.691
48.34,41.992,-75.195,25.879,15.625
62.5,46.875,-75.195,23.926,54.688
47.852,42.48,-46.875,19.531,98.145
32.227,42.969,-217.773,16.113,121.094
34.668,44.434,-158.691,8.789,83.008
39.062,44.922,-56.641,5.859,20.996
42.969,44.434,-74.707,7.812,28.809
36.621,41.016,-31.25,12.207,51.27
15.137,39.062,-216.309,11.719,62.5
10.742,43.457,-221.191,12.207,2.93
28.809,44.922,-87.402,16.602,-14.16
35.645,42.969,-46.387,24.414,-61.523
25.391,41.992,-62.012,20.02,-36.621
7.324,39.551,-206.055,11.23,50.781
4.883,38.086,-227.051,11.719,1.953
17.578,38.086,-81.543,13.184,-19.531
24.902,41.016,45.898,19.043,12.695
11.719,39.062,-1.465,22.949,12.695
-0.488,39.062,-181.641,24.414,38.086
4.395,45.41,-183.105,24.902,30.762
15.625,45.898,-39.551,23.926,41.016
26.855,42.48,36.621,29.785,31.25
23.438,37.598,27.344,29.297,54.199
9.277,37.598,-151.855,25.391,59.082
4.395,39.062,-180.664,23.926,16.113
12.695,38.574,-32.227,19.531,31.738
28.809,41.504,16.113,22.949,-24.414
27.832,42.48,14.648,23.438,-17.09
5.371,41.016,-120.117,17.09,47.852
4.883,42.48,-137.207,20.02,104.492
19.531,43.945,-5.859,25.391,79.102
24.902,42.48,45.41,24.902,21.973
27.832,41.504,59.082,28.809,46.387
20.508,40.527,-100.586,27.344,35.645
17.578,38.086,-188.965,27.344,16.113
31.25,37.598,-63.477,25.879,18.066
43.945,35.156,17.09,18.555,32.227
48.34,38.574,48.34,22.461,20.02
41.504,42.969,-76.172,23.926,0.977
29.785,42.48,-238.77,19.531,-21.484
34.18,43.457,-85.938,18.066,-20.996
46.875,41.504,24.414,22.461,10.742
50.293,42.969,41.504,30.273,48.828
42.48,44.922,-42.48,28.32,29.297
33.203,41.992,-187.5,28.32,4.883
29.785,38.574,-91.309,29.297,8.301
37.109,38.574,2.93,29.297,8.789
44.922,42.969,1.953,29.297,53.223
39.551,43.945,26.855,26.855,68.359
31.738,62.5,-92.773,26.855,51.758
25.879,88.867,-115.723,25.391,50.293
53.223,94.238,-30.273,35.645,25.879
63.965,86.914,-17.09,37.109,43.945
31.25,77.637,17.578,32.715,63.477
20.508,80.078,-92.285,35.156,34.668
28.809,84.473,-130.371,28.32,18.066
41.016,83.008,3.906,28.32,63.477
61.035,79.59,-2.441,36.133,56.152
65.43,73.242,-39.062,41.504,4.395
48.34,72.754,-126.953,34.668,0
46.875,72.754,-152.344,31.738,-2.441
57.129,69.336,-28.809,32.715,3.906
60.547,67.871,49.805,31.738,15.625
57.129,70.312,-26.367,40.039,-23.438
45.41,66.406,-115.723,38.086,42.48
41.016,65.43,-109.863,30.762,84.473
52.734,63.477,-41.504,35.645,30.273
65.918,52.246,54.199,42.969,4.395
70.801,57.617,58.105,42.969,-24.902
71.289,66.895,-99.121,43.945,26.367
72.754,64.453,-164.551,54.199,45.898
62.012,57.617,-49.805,44.434,20.996
48.828,52.246,61.523,20.02,34.18
49.805,51.27,82.52,18.555,51.27
37.109,47.852,-104.004,20.508,38.574
19.531,49.316,-232.91,12.695,-13.184
28.32,52.246,-47.852,11.23,2.441
41.992,49.316,70.801,11.23,16.113
46.875,50.781,77.148,15.625,12.695
37.598,46.387,-42.969,24.414,51.758
20.996,42.48,-163.574,26.855,58.105
19.531,42.48,-56.152,30.273,44.434
41.504,39.551,24.902,40.039,61.523
56.152,42.969,41.504,39.551,55.664
46.387,44.922,-66.406,30.273,2.441
27.832,44.922,-175.293,27.832,35.645
29.785,44.434,-125.488,29.785,41.504
47.363,41.504,-37.598,36.133,16.113
53.223,44.434,36.621,39.551,-36.621
49.316,47.363,1.953,39.062,-12.695
42.969,48.828,-124.512,36.621,60.059
49.316,50.293,-106.445,34.668,-0.488
63.965,45.898,25.391,41.504,-20.996
62.5,42.48,98.633,46.387,32.227
58.105,45.41,17.09,48.34,63.477
52.246,44.922,-157.715,45.898,31.738
50.781,42.48,-125.488,33.691,-33.691
58.594,40.039,52.734,35.156,-11.23
62.012,39.551,46.387,32.227,43.457
57.617,41.016,-49.316,29.297,64.453
48.34,41.504,-64.941,41.016,79.102
47.852,42.48,-56.641,42.48,24.414
63.965,41.504,42.969,39.062,13.184
75.684,40.527,62.5,43.945,82.52
69.824,41.992,36.133,45.41,53.711
60.059,42.48,-89.844,37.598,20.508
64.941,39.551,-116.211,34.668,70.312
71.289,36.621,-14.16,37.598,48.34
81.543,39.062,52.734,41.992,-10.742
88.867,39.062,55.664,47.363,13.184
78.613,41.992,-113.281,47.852,51.27
70.312,43.457,-181.641,45.41,28.32
79.59,39.551,-27.832,45.41,33.691
91.797,38.086,99.121,49.316,21.484
96.191,40.039,110.352,56.152,35.156
79.59,39.551,-103.516,53.711,99.121
66.895,37.598,-190.43,48.34,64.453
75.684,38.574,-9.277,48.34,-12.695
83.984,35.645,11.23,51.27,-6.836
79.102,36.133,45.41,51.27,74.219
72.266,36.133,-32.227,50.781,32.715
60.547,34.18,-171.387,43.945,-25.391
60.547,36.133,-36.133,41.504,6.348
80.566,37.598,-28.32,49.805,10.742
86.426,32.715,24.902,47.852,12.207
79.59,30.762,39.551,45.898,5.371
63.477,34.668,-124.512,45.41,31.25
62.5,31.738,-71.777,47.363,52.246
83.008,34.668,34.18,48.828,21.484
92.773,35.645,64.453,52.734,33.203
87.402,33.691,-34.18,56.152,94.238
83.496,34.668,-159.668,50.781,70.801
80.078,31.25,-104.492,49.805,9.277
82.52,30.273,3.906,58.105,31.738
99.609,37.109,35.645,66.406,8.301
93.75,38.574,-70.312,65.43,-27.832
76.66,33.203,-169.434,64.453,13.672
76.172,35.156,-82.031,62.988,3.906
90.82,33.691,-13.184,66.406,20.508
104.004,27.832,-22.949,69.336,52.246
102.539,28.809,17.578,66.406,34.18
96.191,28.32,-113.77,62.012,39.062
93.262,25.879,-142.09,57.129,48.34
98.145,28.809,2.93,55.664,75.684
110.352,24.902,15.137,60.547,71.777
103.516,20.996,-31.25,63.965,12.207
84.961,22.949,-125,58.594,36.621
75.195,18.555,-180.176,52.734,75.195
72.754,11.23,-61.035,59.082,40.039
83.984,11.23,73.73,62.012,-3.418
79.59,12.695,57.129,58.105,12.207
62.5,12.695,-119.141,59.57,92.773
57.129,15.625,-187.012,53.223,50.781
67.871,17.09,-58.105,52.734,0.977
86.914,16.113,70.801,61.523,61.035
86.914,20.996,31.25,62.5,30.273
74.707,23.438,-135.254,58.105,-39.551
70.801,18.066,-184.082,50.293,-26.855
77.637,17.578,-37.598,51.758,10.742
88.867,21.973,-25.879,55.664,-7.324
80.566,19.531,-49.316,57.617,10.742
69.824,15.625,-20.508,60.059,59.082
64.453,11.23,-127.441,61.035,-7.812
67.383,12.207,-54.688,57.617,-6.348
85.449,12.207,41.992,56.641,24.902
89.355,11.719,17.578,62.012,-53.223
75.195,14.16,-81.055,63.477,-62.988
65.43,15.137,-189.941,56.152,-26.855
72.266,15.625,-97.168,54.199,-18.555
81.543,13.672,21.973,57.129,20.508
87.891,13.672,32.715,57.617,15.625
86.426,14.648,-99.609,56.641,21.973
73.242,12.695,-201.66,57.129,34.18
78.125,19.043,-72.754,61.523,65.43
93.262,21.484,-2.441,64.453,71.289
94.727,12.695,29.785,69.336,15.137
83.008,12.695,-11.719,65.918,46.387
63.965,16.602,-182.129,58.594,61.035
62.5,13.672,-103.516,53.223,36.621
81.055,13.184,-21.973,58.105,24.902
92.773,17.09,-1.465,61.523,2.93
82.52,14.16,33.691,59.57,23.438
66.895,2.441,-151.367,61.523,7.812
58.105,-6.348,-164.551,60.059,33.691
68.848,-6.836,-29.297,55.664,38.574
81.055,-0.977,79.59,61.523,26.855
77.637,0.977,30.273,66.895,15.137
52.246,-0.977,-176.27,62.5,38.574
41.992,2.441,-160.156,60.059,57.617
51.758,6.836,-4.395,60.547,46.387
58.594,5.859,-13.184,63.965,28.809
53.223,7.812,38.574,66.406,55.664
42.969,8.301,-87.891,65.43,92.285
47.852,7.324,-181.641,64.453,40.039
60.547,8.789,-34.668,68.359,20.996
63.965,11.23,26.367,73.242,16.113
58.594,9.277,46.387,66.406,33.691
55.176,6.348,-95.703,65.918,44.922
50.781,5.859,-191.895,68.359,-2.441
51.758,11.23,-53.711,66.895,-31.25
66.406,14.16,72.754,70.312,2.441
65.918,9.277,43.945,72.754,13.672
42.48,7.324,-139.16,71.777,-17.09
28.32,11.719,-171.387,68.848,0.977
40.527,11.719,-5.371,66.895,37.598
61.035,11.719,46.387,69.336,45.898
63.477,12.207,36.621,72.266,22.461
49.316,10.742,-98.633,69.336,49.316
41.992,12.207,-185.059,66.895,71.777
54.199,10.742,-27.344,62.012,30.273
71.289,7.324,-19.043,65.918,-4.883
78.125,-0.488,-20.996,72.266,43.457
63.965,-9.277,20.508,70.801,87.402
58.594,-7.324,-143.555,68.848,96.191
62.012,-1.953,-125.977,64.941,65.43
64.941,1.465,-1.953,67.383,40.039
73.73,4.395,20.996,72.266,39.551
71.777,3.418,-98.145,71.777,17.09
65.918,1.953,-213.867,72.266,-0.488
62.5,-1.953,-151.367,66.406,-17.578
66.895,2.93,-22.461,64.941,6.348
76.66,7.324,12.207,67.871,25.879
65.43,0,2.441,62.012,-4.883
45.898,2.93,-143.555,58.105,3.418
44.434,6.348,-128.906,55.664,19.043
60.059,2.441,-21.973,58.105,13.672
71.777,8.301,38.574,63.477,64.941
68.359,12.695,-31.738,62.5,62.012
53.223,3.906,-216.797,61.523,-4.883
49.805,3.418,-165.039,58.594,-27.832
71.289,5.859,-32.227,56.641,-6.348
82.52,7.324,-14.16,55.176,-38.574
75.684,14.648,-43.457,62.5,-3.418
71.777,8.301,-146.973,69.336,35.156
74.707,-1.953,-140.625,63.477,-0.488
81.055,-3.418,-33.691,63.477,-4.883
91.797,5.859,62.5,62.5,45.898
98.145,8.789,24.902,58.105,52.734
84.473,5.371,-155.273,55.176,30.762
74.707,9.277,-177.734,53.223,28.809
89.355,11.23,-22.461,59.57,55.176
114.746,11.23,-14.16,68.848,51.27
113.77,17.09,-23.438,64.453,35.645
94.727,19.043,-118.652,63.965,18.066
87.402,17.578,-168.945,64.453,49.805
90.82,18.555,-20.02,59.082,58.105
99.121,21.973,-41.016,63.477,14.16
102.051,22.461,14.16,66.895,31.25
95.215,18.066,-4.395,64.453,40.527
79.102,14.648,-178.711,60.547,0.977
78.613,15.137,-64.453,58.105,-13.184
94.727,14.648,79.59,61.523,58.105
92.773,13.672,71.777,64.941,75.195
76.172,17.578,-69.336,60.547,15.137
64.453,10.742,-177.734,57.129,3.418
71.777,-0.977,-87.891,58.105,41.016
88.867,8.789,-3.906,57.617,37.109
96.191,20.508,75.684,57.617,32.715
92.285,15.137,63.965,62.988,30.273
88.379,8.789,-116.211,62.988,32.715
90.332,14.16,-84.961,60.547,36.133
97.656,19.043,56.641,64.941,28.32
105.957,24.414,106.934,69.336,41.992
100.586,27.344,0.488,70.312,27.832
82.031,32.715,-144.043,68.848,10.742
95.703,45.898,-54.688,72.754,31.25
120.117,51.27,53.711,88.379,28.809
104.98,40.039,39.062,73.73,5.859
89.844,32.227,18.555,61.035,-16.113
80.078,32.227,-94.238,62.012,-12.207
73.242,31.25,-80.078,56.641,-21.484
86.914,27.344,56.641,65.43,5.371
91.797,26.367,23.926,64.453,26.855
94.238,33.203,14.16,68.359,25.391
90.332,35.645,-119.141,75.684,14.648
85.449,36.621,-109.375,71.289,63.477
107.422,34.18,38.086,75.195,62.012
127.93,30.273,67.871,78.125,-43.945
116.211,26.367,62.012,74.219,-4.883
91.797,28.32,-153.32,72.266,81.543
87.891,28.32,-165.527,65.43,45.898
97.168,25.879,52.734,63.477,-12.695
104.492,28.32,26.855,70.312,14.16
106.934,31.25,6.836,72.266,24.902
93.262,30.762,-29.297,66.406,-11.719
82.031,28.32,-142.09,57.129,-33.203
88.867,24.902,-20.02,57.129,-10.742
102.539,24.414,113.77,63.477,38.086
101.562,29.785,96.191,58.594,69.336
79.102,35.645,-133.301,53.223,23.926
74.707,38.574,-186.035,51.758,-33.691
80.078,34.18,6.348,52.734,-9.766
86.426,33.203,64.453,55.664,49.316
89.844,34.18,82.52,55.664,53.223
83.496,35.645,24.414,59.57,-27.344
79.59,38.574,-105.469,57.129,-15.137
80.078,36.621,-15.625,46.875,12.207
92.773,35.645,83.008,50.781,31.738
104.004,43.945,114.746,56.152,63.477
85.938,47.852,2.441,56.152,0
73.73,41.992,-103.516,52.734,-5.859
74.707,40.527,10.742,43.945,60.547
83.984,43.945,68.848,40.527,25.391
94.238,43.457,54.199,42.48,-54.199
80.566,31.738,29.785,39.551,-45.41
66.406,30.273,-70.312,36.133,-7.812
67.383,33.203,44.922,31.25,42.48
78.613,29.297,96.191,30.762,51.758
82.031,26.855,44.922,34.18,14.16
71.777,27.832,102.051,36.621,35.645
62.012,26.855,-2.93,36.133,87.402
65.918,24.902,-23.438,36.133,83.008
74.219,24.414,56.641,39.551,12.207
83.496,21.973,127.93,41.504,-11.719
74.707,19.043,83.496,44.922,-8.301
56.641,24.902,-104.98,39.551,4.883
70.312,33.691,-39.551,46.875,30.273
84.473,28.32,125.977,63.477,17.578
72.754,20.02,89.355,50.293,44.434
60.547,18.066,97.168,33.691,61.035
41.504,17.578,10.742,30.273,38.086
31.25,19.043,-83.984,31.738,-45.41
43.457,20.508,104.004,30.273,9.277
56.152,17.09,189.453,35.156,83.008
52.246,14.16,102.539,38.574,-5.859
32.715,8.789,-36.621,31.25,5.371
19.043,8.789,-100.586,28.809,-7.812
23.438,9.766,-0.977,24.902,3.418
39.062,6.836,157.715,25.391,18.066
39.062,3.906,195.312,31.25,8.789
20.508,1.953,-4.395,28.32,19.043
0.488,-5.371,-68.848,17.578,19.531
3.418,-6.836,36.621,14.648,78.613
34.18,-3.906,121.094,21.973,82.031
47.852,-5.859,190.43,36.133,88.867
23.438,-6.836,10.254,43.457,13.184
10.742,-10.742,-72.754,42.969,29.785
26.367,-17.578,50.781,55.176,36.133
47.363,-20.996,97.168,62.988,-9.277
40.039,-22.949,104.004,59.57,22.949
22.461,-24.414,77.148,61.035,9.766
36.133,-20.02,-30.762,65.43,-9.277
40.039,-15.625,55.176,62.012,-72.754
44.434,-12.207,114.258,64.453,-67.383
56.641,-7.812,115.234,66.895,-1.953
43.457,-9.766,162.109,64.941,21.484
32.227,-12.695,-16.113,61.523,20.996
35.156,-13.184,-2.93,55.664,22.461
48.34,-15.625,160.156,59.082,60.547
62.012,-12.695,182.617,65.43,36.621
62.988,-11.719,79.102,67.871,12.207
50.781,-15.137,-85.938,62.5,61.035
47.852,-14.16,4.883,62.012,85.938
68.359,-13.184,115.723,65.43,45.41
67.871,-12.207,161.133,66.895,26.367
47.363,-11.23,133.789,62.012,61.035
32.715,-12.207,-60.059,54.199,96.68
31.738,-11.719,-43.945,50.293,103.027
38.086,-9.766,79.102,53.711,66.406
51.27,-10.742,90.332,59.57,34.18
48.34,-11.719,117.188,54.199,10.254
21.973,-4.883,-33.691,53.711,-6.836
24.902,-0.977,-73.242,61.035,12.207
29.785,-0.488,118.164,63.965,59.57
31.25,-1.465,113.77,61.035,35.645
40.039,-0.977,134.766,62.012,0.488
34.18,0,52.734,59.57,2.93
33.691,0,-61.035,51.758,-20.508
45.898,0.488,96.191,48.34,7.324
55.176,2.441,209.961,54.199,72.754
46.387,3.418,142.578,56.152,42.969
41.016,5.859,-16.113,47.363,-26.367
25.879,9.766,-36.621,42.48,-6.836
33.691,12.207,85.938,40.527,14.648
57.129,13.672,178.223,44.434,-10.742
45.41,15.625,176.27,47.363,55.176
27.344,12.695,20.02,39.062,75.195
14.16,12.207,-27.344,30.273,60.059
22.949,18.555,160.645,26.367,99.609
41.016,19.043,127.441,33.203,55.664
41.504,23.438,126.465,42.48,22.949
36.133,21.484,156.25,48.828,9.277
35.156,19.531,2.93,39.062,25.391
42.969,22.949,65.43,30.762,22.949
51.27,25.391,180.176,38.086,32.227
56.641,26.367,172.363,35.645,19.043
56.152,21.973,35.156,30.273,-70.312
48.34,12.695,-94.238,29.297,-69.824
42.969,9.766,60.547,31.25,-24.414
57.129,11.23,189.941,37.598,3.418
69.824,13.672,167.969,40.527,49.316
60.059,12.695,116.699,35.156,52.734
40.527,12.695,-11.23,28.32,13.672
42.969,12.207,36.133,21.484,-1.953
56.152,10.254,119.141,19.043,33.691
60.059,10.742,127.93,23.926,34.668
58.594,10.254,152.832,29.297,12.207
41.016,8.789,8.301,24.902,59.082
41.016,14.16,-33.203,21.484,51.27
55.176,13.672,61.523,24.414,-15.625
62.988,7.812,125.977,31.25,-21.484
62.012,12.695,172.363,29.297,44.922
46.875,13.184,17.09,24.902,30.273
28.809,8.301,-27.832,27.344,-5.859
39.551,11.719,130.371,28.32,37.109
58.594,11.719,197.754,26.855,40.039
54.199,8.789,154.785,24.902,37.598
33.203,11.23,-9.277,19.043,29.785
38.574,10.254,-5.371,13.184,73.242
66.406,5.371,109.863,11.23,78.125
77.148,6.348,166.992,15.625,-23.438
63.965,14.16,149.902,22.949,-20.508
52.246,12.695,37.598,20.02,59.57
40.039,10.742,6.348,19.043,68.848
33.691,13.672,132.324,18.555,29.785
50.293,13.672,219.238,16.113,10.254
51.27,11.719,227.051,15.625,19.043
41.992,10.254,89.844,7.812,68.359
43.945,9.277,8.789,4.883,104.98
44.434,11.23,95.703,12.207,20.508
58.594,10.254,164.062,19.043,3.418
61.035,12.695,220.703,18.555,33.691
41.992,13.672,164.062,18.555,7.324
37.109,11.23,-20.508,16.113,39.551
54.688,13.672,109.863,10.254,-17.578
72.754,14.16,227.051,17.09,-45.898
57.129,17.578,220.703,17.09,16.602
43.945,20.02,198.242,13.184,-3.906
44.434,17.09,54.199,13.184,-10.254
43.945,17.09,143.555,6.836,54.688
67.871,22.949,232.422,11.23,79.59
68.359,20.508,224.121,17.09,24.902
42.48,11.719,165.527,21.484,29.297
41.992,12.695,21.973,21.973,54.688
59.57,21.973,59.082,20.996,19.043
74.219,32.227,211.426,22.949,32.715
62.988,34.668,242.188,7.324,82.52
44.922,30.762,225.586,-0.488,76.172
44.434,26.855,63.477,6.348,-2.441
51.27,25.879,75.195,7.324,-37.598
52.246,28.809,222.656,5.371,46.875
62.012,32.715,251.953,11.23,87.402
53.223,23.926,175.293,11.23,52.734
27.344,12.695,18.066,2.93,54.199
27.832,13.184,33.691,4.883,38.086
42.48,14.648,165.039,7.324,-21.484
44.434,13.184,240.723,6.836,-11.719
45.898,14.16,155.762,9.277,34.18
50.781,15.625,0.977,7.324,46.387
42.969,15.137,50.781,8.789,32.227
46.875,12.207,213.379,13.184,58.105
61.035,8.789,131.836,16.602,32.715
46.387,10.254,145.02,22.461,34.668
29.297,9.277,122.559,20.508,84.961
31.738,5.371,-12.207,12.695,32.227
45.41,6.348,115.234,12.207,18.066
55.176,9.766,215.82,15.137,18.555
55.176,12.207,203.613,15.137,75.195
42.48,9.766,16.602,11.23,100.586
40.039,10.742,-111.328,7.812,13.672
52.246,8.789,104.004,10.254,2.441
65.43,7.812,183.105,14.16,59.57
57.617,14.16,92.773,12.695,59.082
49.805,18.066,72.754,8.789,23.438
42.48,17.578,-29.297,6.348,-32.227
43.945,17.578,55.176,1.465,-29.785
66.895,17.578,157.715,4.395,14.648
68.359,16.602,155.762,7.812,-26.367
47.852,14.648,62.5,-1.465,14.648
34.668,16.113,-55.176,-4.883,79.102
42.48,14.16,20.508,-2.441,28.809
51.758,12.207,73.73,2.441,17.09
46.387,16.602,97.168,4.395,-15.137
41.992,16.602,148.438,-1.953,7.812
35.156,14.648,-37.598,-4.395,16.602
42.48,16.113,-7.812,-1.953,-23.438
54.199,12.207,124.512,4.883,19.043
56.641,13.184,117.188,8.789,8.301
44.922,21.973,81.543,7.324,32.227
30.762,21.973,-37.109,2.441,10.742
29.297,22.461,13.672,0.488,11.719
29.785,22.461,129.883,0.977,59.082
30.273,18.066,146.973,3.906,50.781
25.879,16.113,52.246,3.906,22.461
7.324,15.625,-75.195,-0.488,16.602
7.324,18.066,29.297,-6.348,77.637
20.02,18.066,132.812,-8.789,87.891
29.297,20.508,151.855,-2.441,39.062
22.461,24.414,125.977,0.977,29.297
15.625,21.973,-50.781,-3.906,17.09
21.973,20.508,-37.598,-5.859,59.082
20.508,19.043,98.633,-4.883,104.004
24.902,25.391,80.078,-0.977,59.57
34.18,28.32,116.211,0,-11.719
19.531,19.043,31.25,-0.488,19.043
8.301,19.043,-91.797,-0.977,86.426
21.973,24.414,67.871,-0.488,38.574
25.879,24.902,98.633,2.441,-70.801
29.785,23.926,120.605,4.883,-43.457
20.996,27.832,85.938,6.348,5.371
10.742,29.297,-41.016,3.906,18.555
23.438,26.855,49.316,8.301,-31.738
35.645,24.414,171.875,11.23,-29.785
37.109,18.555,150.391,7.812,19.043
24.414,20.02,-26.367,8.301,-17.09
11.719,20.02,-60.059,4.395,-0.977
17.09,16.113,51.758,4.883,36.621
33.691,16.602,73.73,9.277,16.113
35.156,16.602,129.395,6.348,0.488
30.273,21.484,97.656,4.883,23.438
18.066,23.438,-44.434,-0.488,51.27
19.043,21.973,48.34,-5.859,56.152
29.785,22.949,83.984,-1.465,-10.742
27.344,21.973,119.141,-5.371,-32.715
16.113,23.438,88.867,-7.324,6.348
2.93,23.926,-53.711,-8.301,73.73
2.93,20.996,0.977,-7.812,32.227
15.625,20.02,106.934,0,-10.742
21.973,23.438,139.16,3.906,36.621
14.16,25.391,29.297,5.371,14.648
0.977,24.414,-105.957,1.953,-34.18
5.371,25.879,52.246,-1.953,46.875
16.602,23.926,148.926,-3.418,66.406
22.461,22.949,79.102,0.488,17.578
14.648,25.879,108.887,2.441,41.016
-8.789,26.367,-37.598,-1.465,24.414
-12.207,24.902,-29.297,-9.277,13.184
0.488,25.391,122.559,-10.742,45.898
0.488,20.996,139.16,-1.953,24.414
-14.16,19.043,77.637,-2.441,-27.832
-24.902,14.16,-80.078,-10.254,-42.969
-15.625,-3.418,-79.102,3.906,-0.488
20.02,4.395,118.652,33.203,33.691
19.531,22.949,126.465,7.812,14.16
-5.371,29.297,91.797,-27.344,17.578
-20.02,28.809,29.785,-27.832,34.668
-29.297,26.855,-28.809,-34.18,16.602
-28.32,33.691,87.891,-42.48,-16.602
-24.414,37.598,173.828,-49.316,28.809
-32.715,34.668,112.793,-60.059,65.43
-45.41,40.527,-65.43,-71.289,9.277
-59.082,46.875,-94.238,-83.496,-32.715
-65.918,49.805,43.457,-95.215,-28.32
-49.316,51.758,47.852,-93.75,-5.371
-43.457,52.734,80.078,-91.797,24.414
-61.035,54.199,45.898,-104.492,52.734
-58.594,53.223,-100.098,-105.469,22.949
-61.523,59.082,11.23,-110.352,-32.715
-54.199,57.617,129.883,-114.258,-12.695
-25.879,51.758,121.094,-93.262,37.598
-43.945,56.641,-19.531,-105.469,44.922
-53.223,63.477,-83.984,-108.398,35.156
-31.738,62.988,29.785,-99.609,38.086
-17.578,58.105,128.906,-95.215,68.359
-5.371,62.012,117.188,-73.242,44.922
-13.184,62.012,-15.625,-66.406,35.645
-18.066,53.711,-81.543,-65.43,60.547
0,52.734,53.711,-59.57,14.16
14.16,54.199,89.355,-52.246,-6.836
17.578,55.664,76.172,-39.551,23.926
9.277,53.223,104.98,-34.18,24.902
-1.953,49.316,-32.227,-38.574,45.898
0.977,51.758,12.695,-31.738,107.91
9.766,54.688,75.684,-24.902,82.031
11.23,50.293,80.566,-19.043,-19.043
9.277,48.34,112.793,-10.742,54.199
8.301,47.852,-67.383,-10.254,107.422
5.371,47.852,-107.91,-11.719,53.223
14.16,47.852,71.777,-11.23,16.602
32.715,45.41,161.133,-5.859,5.859
32.227,49.805,91.797,0.977,9.277
17.09,49.316,-59.57,-3.906,51.27
8.301,44.434,-68.848,-5.859,18.555
20.508,44.922,65.918,-3.418,-47.852
34.668,41.016,100.098,0,-7.324
30.273,40.039,94.727,0.488,-8.301
17.09,42.969,-9.766,-0.977,14.648
4.395,40.527,-55.664,-2.441,64.941
13.184,38.574,41.504,-2.441,43.457
27.832,34.668,105.469,-3.906,43.457
22.949,34.668,105.469,-11.23,30.762
16.602,34.18,-11.719,-14.16,10.254
6.836,34.18,-60.547,-16.113,22.949
7.324,36.621,90.82,-15.625,44.922
22.949,33.691,88.379,-11.23,23.926
20.508,34.18,73.73,-14.648,-7.324
8.301,38.086,52.734,-10.254,12.695
-4.395,33.691,-57.129,-5.859,60.547
6.836,32.715,26.855,-9.277,1.465
21.973,35.156,141.113,-9.766,-49.805
15.625,30.762,136.23,-11.719,-28.809
5.371,25.879,-13.184,-10.742,23.438
-3.906,28.809,-88.867,-8.301,61.523
1.465,30.762,73.73,-9.766,31.25
20.508,31.25,127.93,-1.465,24.414
32.227,33.691,95.703,1.953,26.855
18.555,32.227,96.68,-9.277,25.391
4.395,36.133,-42.48,-9.277,56.152
10.742,36.621,32.227,-10.742,60.059
28.809,31.25,122.559,-6.348,21.973
28.809,32.227,136.719,0.488,-4.883
13.184,35.156,63.965,-3.418,28.809
10.742,34.18,-93.262,-6.836,63.477
6.836,31.25,-36.621,-12.207,68.359
15.625,35.645,109.863,-7.812,66.406
31.25,41.016,88.867,-3.418,21.973
20.996,41.992,100.586,-5.371,-2.441
1.953,38.086,-32.227,-4.883,14.16
1.465,38.574,-16.113,-4.883,42.48
15.625,39.062,121.582,-2.93,100.098
11.719,33.203,115.723,2.441,60.547
-0.488,24.902,72.266,3.418,35.645
-10.254,23.438,-92.773,-5.371,10.254
-18.066,24.902,-59.57,-9.277,-29.297
3.418,24.902,104.98,3.906,25.391
18.066,32.227,112.793,5.859,31.25
2.93,38.086,60.059,-12.207,-10.254
-6.348,40.039,-35.645,-17.578,-23.926
-2.93,37.109,-44.922,-6.348,-5.371
10.254,34.668,112.305,1.953,39.062
28.32,31.25,74.707,-0.977,65.43
20.996,30.273,42.48,-7.812,46.387
-0.488,32.715,2.93,-9.277,21.484
-8.789,32.715,-49.805,-11.23,4.883
-8.301,36.133,83.008,-19.043,34.668
9.277,41.016,152.832,-18.066,25.879
14.16,36.621,113.77,-8.301,26.367
-3.906,32.715,-77.148,-7.812,71.777
-11.719,33.691,-92.285,-16.113,49.316
1.953,36.133,76.66,-15.625,28.32
17.578,41.992,109.863,-13.672,-11.23
20.996,39.062,120.605,-8.789,5.371
6.836,35.156,-13.184,-5.859,30.762
-6.348,39.551,-124.512,-11.719,-2.441
0.488,37.109,62.5,-12.207,-7.324
17.578,35.645,105.957,-9.766,47.363
19.531,40.527,5.371,-7.812,-24.414
6.348,40.527,58.105,-8.789,-27.832
-4.395,40.527,-32.227,-10.742,46.875
6.348,45.41,-12.695,-5.859,24.902
14.16,41.504,98.633,0.977,79.102
10.742,37.598,98.145,-1.465,93.262
1.953,36.621,41.992,-8.789,-6.836
-10.254,38.086,-86.426,-6.836,-32.715
-4.395,41.504,-13.184,-5.859,-1.465
12.207,41.016,94.238,-13.672,56.641
26.367,43.945,101.074,-13.672,103.027
19.043,46.875,-4.883,-6.348,52.734
3.906,44.434,-137.695,-4.883,7.812
5.371,40.527,-35.156,-6.836,33.203
13.672,39.062,57.129,-7.324,46.875
22.949,44.922,41.016,-3.418,-6.836
16.113,44.434,2.93,2.93,8.789
5.371,40.039,-126.953,2.93,15.137
11.719,43.457,-25.879,4.395,20.02
26.367,41.504,70.312,2.93,31.738
37.109,35.645,88.379,-0.488,48.34
33.691,36.621,42.969,2.93,50.781
22.461,39.551,-111.816,1.953,72.266
20.508,39.551,-96.191,-5.371,109.863
26.367,38.086,-1.953,-4.395,41.992
33.691,38.574,80.566,0.488,-16.602
29.785,41.504,52.246,2.441,-0.488
9.766,38.574,-132.812,0,49.316
8.789,37.109,-129.395,-2.441,40.039
14.16,39.062,28.809,4.395,-2.93
18.555,40.527,38.086,5.859,-10.742
22.949,41.016,19.043,1.465,16.113
12.695,42.969,3.906,1.465,-19.043
4.883,43.457,-71.777,2.441,-15.625
17.09,41.016,18.066,1.953,46.875
28.32,38.574,114.746,-0.488,55.176
19.043,35.156,73.73,-1.953,44.434
3.906,36.133,-91.797,0,-18.555
-1.953,38.574,-116.211,-4.395,1.465
4.395,36.133,-6.836,-5.859,57.617
16.113,38.574,56.152,0,-2.441
20.996,41.504,116.699,0.977,-19.043
8.301,42.969,13.184,0,26.855
-6.836,42.969,-135.254,-10.254,45.41
-5.859,38.574,-2.441,-14.648,41.504
3.418,35.156,65.918,-7.324,36.621
7.324,35.156,60.547,-4.395,30.762
-5.371,35.156,43.457,-0.977,18.555
-16.113,34.18,-107.91,-2.93,38.086
-2.441,33.203,-18.555,-7.324,35.645
5.859,33.691,89.355,-4.395,16.602
6.348,38.086,68.359,6.836,-5.859
-0.488,40.039,42.969,8.789,38.086
-17.09,39.551,-49.805,-4.395,84.961
-14.648,39.062,0,-5.859,40.039
5.371,31.25,100.098,12.207,46.875
23.438,28.809,55.664,28.809,51.758
7.812,35.156,99.609,13.184,81.055
-20.02,35.645,-52.246,-8.789,51.27
-18.555,39.551,-34.668,-6.348,23.926
11.23,44.922,122.559,3.418,42.48
32.715,44.434,158.691,13.184,59.57
20.02,45.41,77.148,14.648,79.59
4.395,46.875,-139.648,6.836,16.602
0,45.898,-52.246,5.859,-21.484
17.09,45.41,176.758,11.719,9.766
31.738,49.805,99.609,7.324,35.156
29.297,51.27,57.129,8.301,23.438
27.344,51.27,38.574,9.277,17.09
25.391,53.711,-5.859,4.395,17.09
39.551,54.199,116.211,3.418,9.766
53.223,57.129,212.891,9.766,29.297
51.758,60.059,110.352,16.602,43.457
53.711,60.059,-43.457,20.996,6.348
55.664,57.617,-10.254,28.32,11.719
53.711,51.758,95.215,21.973,34.18
59.57,48.34,117.676,16.113,56.152
65.43,45.41,101.074,25.879,16.602
52.734,45.898,64.941,25.391,-37.109
36.133,46.875,-23.438,16.113,0.977
44.434,42.48,86.426,17.578,29.785
49.316,39.551,192.871,21.484,104.492
43.945,40.527,138.672,21.484,86.426
34.18,41.016,-9.277,10.742,1.953
25.391,38.086,-68.359,0.977,-23.438
36.133,36.133,68.848,4.883,2.441
44.434,39.551,161.621,11.719,75.684
41.992,40.039,100.098,9.766,49.805
34.668,37.109,5.371,10.742,23.926
27.344,39.062,-41.504,12.207,22.949
29.297,33.691,91.309,6.348,-14.16
39.551,27.344,103.516,3.906,-12.207
41.992,23.926,79.102,6.836,-31.738
36.133,26.855,142.09,12.207,4.395
19.531,35.156,-8.301,10.254,49.316
18.555,38.086,37.598,-0.488,75.684
43.457,38.086,121.094,0.977,60.059
53.223,38.574,134.766,7.324,10.254
27.832,40.039,68.848,7.812,-1.953
9.277,40.039,-80.078,1.953,2.93
22.461,41.504,17.578,2.441,45.898
39.551,45.41,146.973,9.766,19.531
48.34,44.922,121.094,15.625,-19.043
39.551,43.457,129.883,12.695,-11.23
22.461,43.945,46.875,6.836,30.273
14.16,43.945,-3.418,10.254,41.504
21.973,38.574,134.766,10.254,10.742
26.367,37.109,212.402,9.766,45.41
22.949,41.992,123.535,7.812,28.809
9.277,39.551,-24.902,-0.977,-11.719
-3.906,34.668,6.348,0.488,11.23
2.93,31.738,119.141,6.348,41.504
21.973,32.715,246.094,6.348,95.215
23.926,35.645,207.52,4.395,102.051
4.883,37.109,4.395,5.371,57.617
4.395,36.133,-17.578,6.836,22.461
18.555,33.203,141.113,6.348,13.672
25.879,34.18,176.27,7.812,40.039
20.996,35.156,152.344,11.719,55.176
-0.977,35.645,94.238,9.766,84.473
-4.395,36.133,2.93,5.859,83.496
12.695,33.203,132.812,8.789,58.594
18.555,33.691,183.594,10.742,7.324
13.672,37.109,129.395,3.906,-62.5
0,38.574,79.59,-2.441,-9.766
-10.254,38.086,50.293,-6.348,20.02
10.742,38.086,164.062,2.441,3.906
22.461,38.574,171.387,0,28.32
8.789,41.016,158.203,-7.812,35.645
-4.883,44.434,139.16,-2.93,-2.441
-5.371,49.805,-21.484,-2.93,-25.391
0.977,48.34,89.844,-6.836,-47.852
19.043,44.922,204.59,-3.906,-10.254
30.762,47.852,197.266,7.812,21.973
10.742,45.41,132.812,4.883,24.414
3.418,43.945,-54.199,-1.465,20.996
13.184,43.457,103.027,2.441,21.973
23.926,41.992,257.812,4.883,106.445
26.855,42.48,155.762,0.977,60.547
11.719,44.922,171.387,-2.441,2.93
-6.348,44.434,64.453,-5.859,56.152
-0.488,43.945,51.758,-8.789,36.621
20.996,44.922,160.156,-3.418,-13.184
28.809,41.016,204.102,8.301,-0.977
17.09,40.039,129.395,5.859,48.828
-0.977,43.945,-24.414,0.488,31.25
-0.488,43.945,69.336,3.418,73.242
11.719,44.922,171.387,5.859,142.578
15.137,47.363,112.793,4.395,66.895
16.113,48.34,129.883,6.836,1.465
10.254,44.434,81.055,0,53.223
10.254,41.016,-1.465,6.836,18.066
28.32,48.34,127.93,10.254,-45.41
38.086,53.711,229.492,-7.812,22.949
26.855,52.246,135.742,-3.906,43.457
9.766,48.828,-24.902,-7.324,5.859
10.742,48.828,-14.16,-19.531,9.277
22.949,46.875,124.023,-17.09,17.578
17.578,46.387,189.453,-18.555,15.625
15.625,47.363,107.91,-4.883,27.344
12.695,40.039,-27.832,-5.371,-9.766
1.465,37.109,-10.254,-12.207,-0.977
15.625,37.598,169.434,-5.371,35.156
30.273,41.504,110.352,-4.883,24.414
26.855,42.48,63.965,-9.766,-1.465
20.02,41.504,76.66,-8.789,-21.973
14.648,43.945,-16.113,-6.836,49.316
19.531,42.969,71.289,-3.418,59.57
21.973,43.457,158.203,-0.977,42.48
33.203,45.41,135.254,-1.953,36.621
24.414,41.992,-26.367,-0.977,-6.348
0.977,39.551,-106.934,-2.93,2.441
