TP9,AF7,AF8,TP10,Right AUX
23.438,36.621,419.434,3.906,-6.836
13.672,38.086,-59.082,1.953,-6.836
22.949,37.598,-229.98,3.906,-12.207
44.922,36.621,62.012,3.906,-28.32
59.57,40.039,457.031,6.348,-8.789
45.41,39.062,375.977,5.859,56.641
16.113,37.109,-240.234,5.371,-13.672
22.461,41.016,-332.52,9.766,-63.965
38.086,40.039,-23.926,11.719,-56.152
46.875,38.086,290.039,17.09,-30.273
50.293,40.527,531.25,20.508,23.926
27.832,40.039,75.195,18.066,27.832
23.926,34.668,-163.574,21.973,46.387
39.551,38.086,62.012,30.273,11.719
44.434,37.109,427.246,25.879,-14.648
35.645,35.156,553.223,21.484,28.809
31.738,39.062,67.871,21.973,9.277
38.574,36.133,-316.406,24.414,-23.438
49.316,37.109,-133.789,28.32,20.02
55.176,37.598,403.32,31.738,57.129
40.039,38.574,601.074,34.18,26.367
18.066,40.527,159.18,25.391,-0.977
13.672,38.086,-144.043,20.508,35.156
23.438,35.645,-38.086,21.973,50.293
35.156,38.574,333.984,20.508,47.852
30.273,38.086,528.32,21.973,86.914
20.02,35.645,110.352,19.531,63.477
15.625,32.715,-229.492,11.719,16.113
8.301,27.832,-16.113,15.137,82.52
18.555,25.879,91.797,20.508,34.668
25.879,28.32,228.027,17.09,-41.504
8.789,31.25,293.945,15.137,-4.883
-7.324,35.156,-74.707,11.23,31.25
-3.906,35.645,-87.891,13.184,14.16
10.254,34.668,229.98,16.602,11.719
11.719,33.203,545.41,16.602,58.105
0,28.32,327.148,16.602,43.945
-10.254,28.32,-133.789,12.695,64.453
-7.812,27.832,-166.504,13.672,42.969
14.16,27.832,208.008,16.602,47.363
15.137,33.203,427.734,21.973,-2.441
-4.395,32.227,110.352,25.391,-89.355
-5.371,32.227,-257.812,21.484,-44.922
9.277,31.738,-133.789,17.578,-13.184
20.02,34.668,249.512,17.578,44.434
24.414,38.574,602.539,18.555,112.305
7.324,31.738,462.891,19.043,83.496
-12.695,31.25,-59.57,18.066,90.332
-2.93,34.668,-160.156,13.184,90.332
12.207,34.18,-5.859,14.16,33.691
30.273,36.621,333.984,19.043,105.469
20.508,38.086,479.492,18.066,135.742
0.977,38.574,-59.082,7.812,35.645
7.324,37.598,-347.656,8.301,40.527
9.277,36.621,-114.746,10.254,49.316
11.719,36.133,373.535,12.695,33.203
13.672,40.527,484.863,18.555,51.758
5.371,37.109,-35.645,13.184,35.645
5.859,32.715,-253.906,10.254,51.27
27.832,41.504,-23.438,16.113,121.094
42.969,44.434,186.523,20.508,75.684
28.32,41.016,335.449,23.438,34.668
7.812,40.039,20.996,23.438,72.754
3.906,36.621,-315.918,16.602,61.523
22.461,36.621,-175.293,14.648,10.254
34.668,36.133,124.023,25.391,-38.574
22.461,31.738,277.832,26.855,-11.23
6.348,30.762,1.465,12.207,11.719
5.859,32.715,-350.586,7.324,-49.316
14.16,32.715,-239.258,9.277,-19.531
22.949,27.344,197.754,12.207,-5.371
18.555,30.273,406.738,10.742,-3.906
0,32.227,61.523,8.301,24.414
-14.16,27.832,-264.16,3.418,44.434
-6.836,30.273,-191.895,0,17.09
16.602,29.785,187.012,1.465,28.809
16.113,26.855,441.406,2.93,60.059
1.953,33.691,39.551,1.465,32.227
-10.254,38.086,-486.816,1.465,-5.859
-10.254,37.109,-335.449,9.277,-15.137
10.254,33.691,75.195,9.766,28.809
18.555,29.297,222.168,8.301,20.996
2.441,27.344,229.004,11.23,-4.395
-8.789,32.227,-71.289,12.207,57.617
-1.953,33.691,-143.555,10.254,43.945
20.02,30.273,228.516,13.184,-12.695
23.438,32.227,501.953,17.09,-4.395
6.836,34.668,295.41,19.043,13.672
2.93,35.645,-200.195,19.043,8.301
13.184,36.621,-288.574,18.066,22.949
23.926,35.156,-57.617,11.23,-2.93
18.555,33.691,303.223,10.254,38.574
6.348,35.156,412.109,11.719,79.102
-6.836,34.18,-72.754,6.836,-4.883
-5.371,31.738,-168.945,7.324,33.203
9.277,29.297,141.113,14.648,60.547
11.719,22.949,444.824,20.02,22.949
-7.812,21.484,377.93,17.578,41.016
-11.23,22.949,-171.387,15.625,18.066
-5.371,21.484,-300.781,12.207,-12.207
12.695,25.879,25.879,12.207,-21.484
28.809,25.391,364.746,18.066,34.18
18.555,11.719,366.699,37.109,48.34
15.137,19.531,-10.742,46.387,19.043
2.93,33.691,-173.828,15.137,21.973
-5.371,37.109,-5.371,-1.953,-11.23
5.859,41.016,322.754,0.977,-29.785
-2.93,43.945,498.535,-11.23,29.297
-14.648,45.41,75.684,-17.578,28.32
-15.625,49.316,-232.91,-25.879,-7.812
-0.977,52.246,10.742,-27.344,15.137
8.301,58.105,279.297,-28.32,32.715
0.488,59.082,373.535,-30.273,9.766
-5.859,53.223,64.453,-32.227,6.836
-6.348,52.734,-253.418,-29.297,24.902
8.789,46.875,24.902,-22.949,5.859
22.949,42.48,322.266,-20.02,15.625
23.926,42.969,490.234,-5.859,56.152
13.184,42.969,369.629,-2.93,57.129
9.766,46.875,-24.414,-6.348,59.57
21.484,44.434,86.426,-2.441,76.172
33.691,40.039,440.43,0.977,60.059
36.133,37.109,638.672,9.766,84.473
23.926,35.156,305.664,14.648,68.848
15.137,34.668,-168.945,9.277,2.93
28.32,35.156,-76.66,16.602,49.316
40.039,32.715,196.289,20.996,51.758
46.387,29.785,441.406,17.09,69.336
29.297,31.738,425.781,13.672,47.363
6.836,32.227,10.254,11.719,-45.41
20.996,34.18,48.34,16.113,-11.23
38.574,33.691,386.719,19.531,-17.09
32.227,32.715,659.668,25.879,0
29.785,35.156,468.75,24.414,18.066
22.949,39.062,-41.016,23.926,-31.738
19.531,38.574,5.371,28.809,38.574
39.551,37.109,342.285,32.715,57.617
46.875,37.598,506.836,37.598,8.789
35.156,38.086,388.184,35.645,42.969
18.555,36.133,48.34,29.297,47.852
25.391,37.109,9.277,28.809,-0.977
43.457,42.48,242.676,23.926,-10.742
40.039,39.551,434.082,20.996,22.949
32.227,38.086,524.902,22.461,20.996
30.273,38.574,230.957,21.973,47.852
33.691,33.691,23.438,16.602,19.531
34.18,32.227,244.629,16.602,-34.18
40.527,32.715,575.684,18.555,-63.965
25.391,28.809,607.422,16.113,-43.457
5.371,27.832,94.238,16.113,2.93
6.348,29.785,-120.117,14.648,-9.277
14.16,31.25,284.18,12.695,-25.879
28.809,31.25,480.469,14.16,-49.316
23.926,30.273,588.867,16.602,-18.555
21.973,34.18,424.805,20.508,34.18
19.531,32.715,55.664,19.043,4.883
18.555,25.391,254.395,18.066,34.18
29.785,27.832,709.473,22.949,74.219
27.832,31.738,779.785,23.926,59.082
12.695,32.715,374.512,15.137,80.078
9.277,33.691,9.766,12.207,41.016
21.973,30.762,128.418,17.578,60.547
30.273,33.691,524.902,23.438,64.941
22.949,33.691,754.883,21.973,55.176
17.09,35.156,432.129,19.043,98.145
14.16,34.668,9.766,13.672,68.848
20.508,34.18,213.867,17.09,73.73
26.855,36.133,428.223,17.578,56.152
-3.906,27.832,542.48,1.465,62.5
-30.762,24.414,438.477,-7.324,54.688
-33.691,30.273,-41.504,-9.277,15.625
-21.973,32.715,116.211,-5.371,69.336
-0.977,31.738,525.391,0,29.297
2.93,33.691,608.398,3.418,2.93
-8.789,33.691,335.938,3.906,40.039
-16.113,33.691,-30.762,0,-22.949
-13.184,32.227,134.766,-0.977,-21.484
-5.371,30.762,430.664,4.883,30.273
-7.812,31.25,548.828,7.324,59.57
-3.906,34.18,444.824,9.766,28.32
-2.93,36.621,79.59,9.766,5.859
-1.465,37.109,111.328,6.348,12.207
21.484,37.109,429.688,7.812,16.113
25.879,37.598,690.43,13.672,14.16
8.301,37.598,520.996,20.996,31.25
-7.324,37.598,-38.574,17.09,61.035
-1.953,39.551,-108.398,13.672,35.156
12.695,36.621,289.062,21.484,-14.648
16.602,36.133,480.469,23.438,-8.301
2.93,39.062,499.512,22.949,-1.953
-8.789,35.156,188.477,22.461,-23.438
0.488,33.203,55.176,21.973,10.742
11.719,32.715,380.859,27.344,77.637
15.625,31.738,635.742,34.18,55.664
7.812,32.227,544.434,31.738,3.906
-15.137,27.344,97.168,29.297,2.93
-8.789,30.273,-82.031,27.344,30.762
13.672,36.133,182.617,28.32,54.199
20.996,35.645,377.93,23.438,52.246
8.789,37.109,412.109,19.531,42.969
-4.883,35.156,220.703,19.043,14.16
0.488,33.203,-11.719,17.09,-14.648
12.207,32.715,198.73,23.926,-40.527
12.207,32.715,564.453,24.902,-19.043
5.859,31.738,641.113,26.367,46.387
6.348,32.227,198.73,25.391,21.484
5.859,32.227,-96.68,13.184,47.363
10.742,30.762,142.578,8.301,77.148
23.926,32.715,504.395,13.184,56.641
20.996,30.762,514.648,13.184,74.219
-6.836,29.785,87.402,9.277,26.367
-15.625,29.785,-126.465,7.324,40.527
-2.93,28.809,185.547,13.184,105.469
6.836,30.273,362.305,21.484,81.055
2.93,33.691,344.238,19.043,40.527
-6.836,35.645,307.617,19.043,59.57
-8.789,34.18,-39.062,19.043,51.27
-3.418,31.25,42.48,19.043,54.199
19.531,32.715,426.27,27.344,89.844
19.043,35.645,514.648,24.902,0.488
-0.488,37.109,225.098,17.09,-39.551
-10.742,37.109,-256.348,16.113,-5.859
-6.348,30.762,-207.52,16.113,-47.363
14.16,29.785,273.438,22.461,-37.109
20.02,31.738,559.082,27.832,11.719
6.348,29.297,381.836,23.438,9.766
-5.371,27.832,-70.312,18.066,22.461
2.441,27.344,-61.523,16.113,26.367
21.484,30.762,188.965,21.484,-11.23
17.578,33.203,387.695,28.32,7.812
10.254,33.203,390.625,28.809,14.16
4.883,36.621,13.672,27.832,14.16
9.766,34.18,-34.18,28.809,62.5
26.367,32.715,199.707,24.902,52.246
32.715,34.18,426.27,31.25,9.766
12.695,31.25,452.637,25.879,24.414
-7.324,32.715,27.344,19.043,50.293
2.441,32.227,-99.121,23.438,69.824
16.113,28.32,214.844,23.438,45.898
29.297,33.691,366.211,27.832,24.414
18.066,36.621,358.398,28.32,27.832
-2.93,32.227,53.711,20.02,-18.066
6.348,29.785,-265.137,19.043,-90.332
20.508,33.691,104.004,19.531,-22.461
31.25,35.645,581.055,19.043,26.855
24.902,34.18,413.086,19.043,-10.254
10.742,35.156,-39.551,15.625,-27.344
11.23,36.621,-125.488,12.207,2.441
11.23,34.668,237.793,12.695,16.602
23.438,32.715,402.344,10.742,10.742
19.531,35.156,345.703,3.906,9.766
-12.695,36.621,169.434,3.418,-34.668
-13.184,38.574,-71.777,4.395,-0.488
-5.859,39.062,198.242,-9.277,63.477
6.836,52.734,530.762,-7.324,46.387
25.879,62.5,519.531,21.973,-14.16
-23.926,45.41,234.375,-4.395,63.965
-61.523,44.922,-177.734,-44.922,114.746
-42.48,50.293,-43.945,-47.852,84.473
-51.27,42.48,283.203,-55.664,30.273
-65.43,48.828,376.465,-65.918,30.762
-88.867,50.293,289.551,-74.707,41.016
-104.492,46.875,-51.758,-85.938,4.883
-100.586,45.898,63.477,-96.191,1.465
-103.516,39.062,433.594,-105.957,-0.488
-107.422,42.48,581.543,-108.398,11.719
-133.301,42.48,308.594,-122.07,37.109
-168.945,32.227,-104.492,-147.461,62.012
-164.551,32.715,-25.879,-152.344,47.852
-155.273,38.574,209.961,-156.738,-3.418
-170.898,38.574,333.496,-168.457,10.742
-186.523,35.156,250.977,-172.852,33.203
-197.754,33.203,-129.395,-171.387,-17.09
-185.059,35.156,22.461,-170.898,24.902
-163.574,42.48,375.488,-167.48,23.926
-167.969,41.992,557.617,-170.898,19.531
-180.664,43.945,430.176,-171.387,84.473
-177.246,45.898,-39.551,-157.715,102.051
-171.387,38.574,-143.555,-148.438,45.41
-141.602,31.738,218.262,-132.324,41.504
-123.047,31.25,510.254,-120.605,98.145
-130.371,38.574,260.254,-115.234,74.707
-125,30.762,-250.977,-98.145,21.484
-106.934,23.438,-219.727,-82.52,-5.371
-56.152,34.18,228.027,-60.059,9.277
-22.949,27.344,478.516,-32.715,26.367
-27.344,17.09,354.004,-17.578,28.32
-14.16,19.043,-129.883,4.883,-37.598
-1.465,20.508,-226.074,18.066,-6.348
28.809,25.879,262.207,32.227,83.496
49.805,23.926,373.047,51.27,77.637
48.34,20.508,215.82,57.129,-7.324
53.711,27.832,18.555,68.359,-19.531
53.223,29.785,-263.184,71.777,33.203
64.941,24.414,26.855,79.102,42.969
94.238,23.926,304.688,91.309,30.762
100.098,29.785,303.711,96.191,45.898
79.102,33.203,152.344,99.609,35.156
78.125,24.414,-119.141,104.492,21.973
105.957,20.508,105.957,110.84,23.926
117.676,24.414,435.547,117.676,28.809
107.422,23.438,478.027,118.652,53.223
95.703,26.367,164.062,118.652,69.336
89.844,29.297,-166.016,122.07,72.266
111.328,25.391,36.621,122.07,35.645
134.766,23.438,281.25,119.629,30.273
121.094,26.367,384.277,121.582,63.965
104.98,29.297,234.863,121.582,-21.973
100.586,32.227,-79.59,117.676,-42.969
107.91,33.691,141.602,115.723,2.93
118.164,31.738,458.984,109.863,-5.371
105.469,31.25,600.586,107.91,41.992
83.984,34.18,447.754,111.816,55.664
75.684,36.621,18.066,111.816,-9.766
84.961,34.668,116.699,107.91,-8.789
98.633,28.809,503.418,105.957,33.691
90.332,28.32,708.008,105.469,15.137
65.918,33.691,425.293,103.027,7.324
41.016,37.109,7.812,93.262,4.883
49.805,32.715,237.305,89.355,43.457
71.777,30.762,640.625,92.285,53.223
63.965,33.691,648.926,85.449,69.824
45.41,28.809,534.668,81.055,93.262
27.832,27.344,253.418,80.078,24.902
40.039,27.344,196.289,77.637,7.812
54.688,30.273,582.031,82.52,34.18
53.711,36.133,796.387,82.031,28.32
41.504,36.133,655.762,79.102,37.598
34.668,36.133,241.211,74.219,62.988
26.367,35.156,-17.09,65.43,-8.301
38.086,33.691,325.195,69.336,-62.012
51.758,32.227,608.398,76.172,-31.25
25.391,32.715,580.566,71.777,8.789
1.953,33.203,363.77,67.871,-31.738
6.348,32.715,194.824,65.918,-37.109
20.508,33.691,556.152,69.336,19.531
29.785,33.203,843.262,76.172,23.438
30.273,32.715,717.773,76.66,13.672
9.277,33.203,295.898,74.707,31.738
1.953,34.18,47.852,70.801,18.066
22.949,36.133,356.934,65.43,-28.809
35.645,34.668,563.965,62.5,8.789
21.484,32.227,481.445,62.5,32.715
0.488,30.273,284.668,56.641,-19.531
4.883,34.18,53.711,56.152,38.086
26.855,37.598,349.609,50.293,74.219
43.457,37.109,667.48,52.246,38.574
38.086,34.18,634.766,56.152,31.25
17.578,34.668,287.109,47.852,21.484
16.113,38.086,-35.645,46.387,5.859
39.062,37.109,196.289,48.828,3.906
42.48,37.598,560.059,52.734,2.441
31.738,39.551,637.695,51.758,25.879
17.09,41.992,234.863,47.852,28.809
-4.883,40.039,-192.871,47.363,-3.418
12.207,38.574,88.867,43.457,-39.062
32.227,40.039,577.148,42.969,-1.953
21.484,39.062,694.336,43.945,41.504
10.742,37.598,343.75,39.062,-14.16
5.859,36.621,-59.57,41.016,-24.414
11.719,33.691,145.996,37.109,3.906
20.508,29.785,546.387,35.645,49.805
29.297,32.715,556.152,37.598,91.309
17.09,36.621,379.395,31.738,91.309
-3.418,31.25,36.133,29.297,31.25
17.09,33.203,-60.059,28.32,9.277
37.598,38.574,351.562,32.227,15.137
39.551,40.039,493.652,35.645,54.199
28.32,40.039,347.656,34.18,88.379
14.648,36.621,93.75,26.855,51.758
27.832,34.18,1.465,27.832,13.672
39.062,34.668,367.676,35.156,0
46.387,31.25,583.496,32.227,16.113
38.086,29.297,313.965,27.344,-0.488
17.09,33.691,-68.359,24.414,11.719
23.438,37.109,-76.172,26.367,45.898
42.48,34.18,290.039,31.25,38.086
44.434,34.18,426.758,34.668,-7.812
44.922,33.203,276.367,36.621,-11.23
42.48,26.367,15.137,34.18,23.926
27.344,29.785,-113.77,28.32,30.762
38.086,30.273,236.816,32.715,42.48
62.012,30.273,479.98,35.156,46.387
47.852,34.18,363.281,32.715,56.152
17.09,30.273,-73.242,27.832,-14.648
25.391,30.273,-291.016,23.926,-14.648
47.852,33.691,91.797,33.691,21.484
52.246,34.668,333.496,36.133,64.453
45.898,35.645,222.656,32.227,79.102
30.273,32.715,-99.609,29.297,63.965
33.691,30.762,-426.758,25.879,35.645
48.828,31.25,-36.621,29.297,1.465
49.316,32.227,317.383,31.25,21.484
33.203,30.273,141.113,27.832,24.414
14.648,27.832,-35.156,24.414,37.598
25.391,31.738,-315.918,20.996,6.348
53.223,32.715,-116.699,20.996,8.789
56.641,29.785,319.336,28.809,67.383
36.621,34.18,316.895,32.227,65.918
17.09,36.133,-46.875,16.602,50.293
7.812,32.227,-429.688,9.277,44.922
26.855,28.32,-346.191,14.648,58.594
56.152,28.809,-7.812,26.855,45.898
46.387,34.668,168.457,32.715,12.207
20.508,31.738,-8.301,32.715,50.781
15.625,29.785,-423.34,31.738,47.363
31.738,30.762,-353.516,26.855,22.949
51.27,28.32,14.16,28.32,-23.926
47.852,28.809,-40.039,30.762,-90.82
24.414,31.25,-201.172,31.25,-61.523
15.137,30.273,-357.422,26.367,48.34
30.762,29.785,-359.863,26.367,50.293
53.711,36.621,32.227,32.715,36.621
48.828,35.156,117.188,35.156,38.086
28.32,27.832,-193.359,30.273,8.789
23.438,27.344,-490.723,23.926,21.973
33.691,30.273,-545.41,24.902,10.742
53.711,29.297,-84.473,23.926,-17.09
51.758,29.785,44.434,20.02,7.812
39.551,34.668,-238.77,23.438,0
24.414,34.668,-412.598,24.902,-20.996
12.695,31.25,-466.309,22.461,0.977
28.32,30.273,-66.406,24.414,40.039
39.551,28.32,202.637,26.367,64.453
30.273,27.832,-29.785,26.855,30.762
21.484,27.344,-534.18,20.508,34.18
20.996,26.367,-711.426,16.602,14.648
30.762,31.25,-144.531,23.438,23.438
50.293,31.25,125.488,26.367,89.355
43.457,29.785,-169.434,21.973,58.105
18.555,30.273,-480.469,18.555,-22.949
29.297,31.25,-613.281,20.02,6.836
46.387,30.762,-168.457,26.367,43.945
53.711,28.809,140.137,24.414,16.602
42.48,28.32,32.227,17.578,19.043
18.066,29.297,-373.047,16.113,-5.371
28.32,32.227,-664.062,20.02,-31.25
48.828,32.715,-367.676,17.578,28.809
55.176,29.785,-25.879,19.531,57.617
56.641,33.203,-95.215,20.996,55.176
32.227,36.133,-285.156,15.625,58.105
12.207,33.203,-477.539,14.648,45.41
32.227,33.691,-251.953,14.648,66.895
45.898,31.25,67.871,20.02,31.25
38.574,29.785,86.426,21.973,28.32
26.855,34.668,-310.059,15.137,19.531
22.461,37.598,-702.148,11.23,-12.695
36.621,39.551,-346.191,14.16,37.598
50.293,39.062,107.91,17.09,50.293
57.129,35.645,41.992,22.949,-8.789
36.621,36.621,-314.941,26.367,-15.625
16.602,38.574,-511.719,24.902,48.34
31.25,32.227,-336.914,24.902,23.438
48.34,30.762,73.73,31.738,-26.367
52.734,38.086,36.621,37.598,24.414
44.922,38.574,-234.863,37.109,47.852
20.02,30.762,-375.977,30.273,41.992
8.301,22.949,-327.148,19.043,47.852
17.578,20.996,63.965,14.16,12.695
25.879,25.879,163.086,16.113,-18.066
20.508,27.344,-86.914,17.578,27.344
8.789,26.367,-466.797,16.113,51.758
11.719,29.785,-469.727,19.531,59.57
39.062,30.762,71.777,27.832,59.57
40.039,31.25,346.68,33.691,75.195
11.719,31.738,62.5,30.762,42.48
3.906,32.227,-335.449,17.578,41.504
14.648,32.227,-410.645,17.578,45.898
37.109,30.273,44.434,20.996,33.691
45.898,29.297,172.852,16.602,37.109
28.32,30.273,-119.141,12.695,37.109
8.301,31.738,-291.016,8.301,7.324
12.207,29.785,-383.789,6.348,-19.043
21.484,32.227,-28.809,12.695,37.109
25.391,33.203,165.527,13.672,32.715
13.184,30.273,-49.316,16.113,-10.254
-19.043,26.367,-239.258,19.531,-37.109
-15.625,30.762,-305.664,19.043,4.395
2.93,33.691,20.02,18.066,41.504
6.348,28.809,307.129,22.949,37.109
-7.324,31.25,180.176,29.297,30.762
-31.738,29.297,-209.961,20.996,34.668
-29.785,28.32,-489.258,19.531,17.578
-14.648,28.32,-209.473,17.578,-14.16
-12.207,25.391,160.156,16.113,-9.766
-14.16,30.273,65.43,17.578,18.555
-24.902,36.133,-326.66,10.254,25.879
-30.762,32.715,-462.402,11.23,65.43
-24.414,27.344,-241.699,9.766,16.602
-7.324,28.32,123.535,7.812,35.645
-9.277,31.738,29.297,11.23,51.758
-23.438,35.645,-259.277,10.742,23.926
-32.227,31.738,-408.691,14.16,-1.465
-31.738,30.273,-252.441,14.648,-19.531
-7.812,38.086,161.133,21.484,-4.883
-9.277,36.621,192.871,20.508,-19.531
-27.344,31.738,-115.234,17.09,-4.395
-24.902,32.715,-541.016,18.555,20.508
-9.766,35.645,-454.59,12.207,25.391
18.555,44.922,146.973,18.066,12.207
46.875,48.828,114.746,49.316,-8.789
9.766,34.668,-172.363,41.992,59.082
-46.875,24.902,-272.461,2.93,90.82
-43.945,21.484,-368.164,-5.371,-10.254
-33.691,15.137,130.371,-2.93,22.949
-60.547,12.695,356.934,-7.324,33.203
-80.078,12.695,15.625,-20.508,-5.371
-90.82,11.23,-302.246,-23.438,81.055
-94.727,11.23,-320.801,-26.367,104.004
-77.637,7.812,12.207,-23.438,38.574
-69.824,4.883,100.098,-19.043,13.184
-83.496,5.371,-159.18,-20.02,-21.484
-92.773,4.395,-251.465,-19.043,15.137
-67.871,6.348,-219.727,-17.578,47.852
-43.945,13.672,183.105,-10.254,79.102
-48.34,18.555,385.254,-0.488,65.43
-50.293,15.137,149.414,4.883,27.832
-44.434,15.137,-295.898,9.766,26.855
-33.203,20.996,-473.633,15.137,-1.465
-16.113,20.996,66.895,21.484,31.738
-4.395,21.484,345.215,31.738,12.207
-18.555,23.438,49.805,27.344,-54.688
-29.785,24.902,-319.336,19.043,-14.16
-21.973,23.438,-401.855,16.113,-3.418
-0.488,24.902,99.121,19.043,-5.371
7.324,25.391,461.426,19.531,85.449
-6.836,23.438,275.391,16.113,98.633
-20.02,25.879,-90.82,16.602,35.156
-17.09,28.809,-294.434,21.484,48.34
12.207,31.25,37.598,29.785,67.871
9.277,29.785,361.816,31.738,62.012
-9.277,31.738,151.855,35.645,61.035
-9.277,32.227,-170.41,33.691,38.574
-0.977,22.949,-381.836,27.832,-22.461
6.348,21.973,-90.332,27.344,-3.906
17.09,26.855,410.645,25.391,5.859
6.348,31.738,286.621,26.855,10.742
0,34.668,-1.465,27.832,34.18
4.883,32.715,-130.371,27.344,-12.207
2.441,31.25,34.668,31.25,-19.043
19.531,28.32,406.738,31.738,-35.645
29.297,27.344,437.988,36.133,-11.719
14.648,30.273,102.051,37.109,7.324
0.488,34.18,-224.121,34.668,14.16
9.766,30.762,-114.746,42.969,-11.23
23.438,25.879,210.449,45.41,-41.504
20.996,28.809,294.922,46.387,-25.391
5.371,30.762,90.82,34.668,-31.25
-6.348,29.297,-143.555,25.391,31.738
-7.812,25.879,-82.031,27.832,71.289
14.16,23.926,363.281,30.273,71.777
13.184,24.414,291.504,32.227,35.156
-14.648,23.926,-118.652,28.809,-18.066
-12.695,25.391,-226.562,32.227,9.277
20.02,27.344,-212.891,29.297,-1.465
28.809,29.785,187.012,30.762,-11.719
16.113,32.227,385.742,35.645,18.066
3.906,30.273,7.812,31.738,-6.348
-15.625,27.832,-426.758,30.762,-22.949
-8.301,30.762,-414.551,31.738,-44.434
19.043,31.25,152.344,30.273,-1.465
28.809,29.785,361.328,28.809,47.363
11.719,34.668,81.543,31.738,13.672
-1.465,35.156,-250,31.25,-11.719
12.207,33.691,-383.301,29.785,-3.906
29.297,31.738,7.812,39.062,-12.695
30.762,32.227,259.277,42.969,48.828
21.973,33.203,-63.477,42.48,43.457
5.859,29.297,-323.242,39.551,11.23
6.348,29.785,-468.75,35.156,60.547
21.973,32.715,-169.922,32.715,29.785
23.926,33.691,231.934,30.273,3.906
0.488,31.25,-37.598,30.762,41.016
-1.953,30.762,-310.547,26.855,60.547
0.488,28.32,-373.047,27.832,29.297
2.93,25.879,-152.344,29.785,40.527
21.973,29.297,186.523,32.227,68.359
15.625,33.203,118.652,34.668,59.082
11.719,36.133,-285.645,32.715,29.297
13.184,33.691,-557.129,35.645,19.531
24.414,31.738,-296.387,28.809,52.734
36.621,35.156,1.953,21.484,8.789
17.578,41.504,-231.934,21.973,-46.387
12.207,40.527,-498.535,15.625,-49.805
9.766,37.109,-483.398,14.648,18.555
19.531,35.156,-239.258,14.648,118.652
25.391,35.156,88.867,18.555,66.895
12.207,36.133,29.785,23.438,5.371
4.395,33.203,-343.75,19.531,-0.977
0.488,30.273,-609.375,15.625,77.148
15.137,30.273,-532.715,19.043,91.797
27.344,31.738,-122.559,24.414,26.855
23.926,31.738,-17.09,28.32,1.465
12.695,30.762,-430.664,19.531,11.719
3.906,30.273,-797.363,13.672,39.062
18.555,27.832,-690.918,21.973,-20.508
46.875,25.879,-65.43,23.926,-8.789
51.758,28.32,-6.348,20.02,55.664
25.391,29.785,-487.305,20.508,45.898
8.789,29.785,-619.629,25.879,47.852
21.973,27.344,-543.945,36.621,40.039
44.922,30.762,-185.059,29.785,0.977
40.527,32.715,-11.23,24.414,3.906
23.926,34.668,-264.16,25.391,38.086
1.465,33.691,-708.008,14.648,15.137
-4.883,29.785,-805.664,9.766,32.227
21.484,35.156,-309.57,10.742,73.242
21.973,36.621,-79.59,14.648,62.012
0,32.715,-393.066,12.207,52.734
0,32.715,-621.582,5.859,12.207
7.812,34.18,-601.074,5.859,-5.859
28.809,34.668,-238.77,8.301,36.133
33.691,30.762,8.301,20.02,44.922
29.297,29.297,-210.938,15.625,16.113
14.648,32.227,-604.004,13.184,-11.23
16.113,33.691,-740.234,16.602,-1.465
36.133,34.668,-361.816,17.09,28.809
43.945,37.598,-112.305,25.391,42.969
28.809,38.086,-258.301,21.973,49.805
5.371,34.18,-624.023,21.973,-7.812
13.672,35.156,-775.879,23.926,-26.367
38.574,35.645,-357.91,27.832,34.18
54.199,33.691,-1.465,29.785,41.016
43.457,35.645,-287.598,25.391,28.809
22.461,37.109,-630.859,22.949,23.926
24.902,38.086,-667.969,19.531,58.594
36.133,34.668,-474.609,19.043,39.062
46.875,32.715,-106.934,19.531,18.066
38.574,37.598,-148.926,18.555,50.293
16.602,36.133,-617.188,15.137,51.758
9.277,35.156,-995.117,15.625,-53.223
25.879,33.203,-671.387,17.09,-25.391
44.922,35.156,-30.762,22.949,81.543
31.738,38.574,-253.906,15.625,53.711
1.953,35.156,-747.07,10.254,35.645
12.695,35.156,-756.836,14.648,62.5
25.391,38.086,-601.074,16.602,61.523
23.926,38.574,-192.871,19.531,83.984
22.949,34.668,-135.742,24.414,104.004
17.09,37.109,-563.965,34.18,39.551
20.996,39.551,-932.129,30.273,-9.766
37.598,37.109,-885.254,20.508,64.941
39.551,30.762,-444.336,21.484,64.453
30.273,29.785,-352.051,20.508,-5.371
18.555,29.297,-732.422,18.066,-31.25
0.488,27.344,-845.703,16.602,-10.742
13.672,33.691,-705.078,16.113,14.16
36.621,30.762,-367.676,22.949,8.789
35.645,26.855,-262.695,24.902,-14.648
10.254,28.32,-442.383,18.066,29.785
-10.742,31.738,-764.648,15.625,64.941
12.695,33.691,-869.141,15.137,17.578
32.715,30.273,-425.293,19.531,33.691
21.484,31.25,-291.992,20.996,29.297
13.184,33.203,-703.125,19.043,-11.719
3.418,32.715,-861.328,20.02,-4.395
13.184,30.273,-775.391,31.25,12.695
36.621,27.344,-441.895,39.551,-17.578
28.809,23.438,-143.555,21.484,14.16
1.953,24.902,-308.105,8.301,88.867
-19.043,30.762,-715.332,6.348,61.035
-21.973,32.715,-877.441,6.836,43.457
-7.324,26.367,-592.773,12.695,18.555
-3.418,21.484,-240.234,6.348,11.23
-35.156,25.391,-333.984,1.953,30.762
-69.336,25.879,-793.457,0.488,10.254
-59.57,25.391,-988.281,-2.93,6.836
-36.621,29.785,-552.734,0.488,86.426
-34.18,28.809,-50.781,10.254,84.473
-47.852,27.832,-436.523,14.16,-23.926
-57.129,33.203,-867.188,9.277,-39.062
-56.152,33.691,-767.09,9.277,16.602
-41.992,34.668,-448.73,14.16,84.473
-32.715,29.785,-73.73,14.648,64.453
-53.711,27.832,-176.758,11.719,21.484
-68.848,31.25,-566.895,10.254,14.16
-57.129,33.203,-846.68,8.789,39.551
-37.109,32.227,-767.578,10.254,8.301
-34.668,29.785,-259.766,13.672,40.527
-47.852,34.18,-143.555,15.625,46.875
-59.082,34.668,-481.445,13.184,-7.324
-58.594,27.832,-699.707,9.766,32.227
-56.152,24.902,-563.477,9.766,44.922
-42.48,25.879,-133.789,8.789,-26.855
-32.715,26.367,-188.477,10.742,-30.273
-53.711,24.414,-563.965,11.719,64.941
-68.359,24.902,-710.449,14.648,31.25
-44.922,33.203,-561.523,17.578,48.34
-25.879,33.691,-100.098,21.484,74.219
-22.949,30.273,-171.387,30.762,12.695
-25.391,31.738,-534.668,34.668,85.449
-35.645,32.227,-745.605,32.715,48.34
-15.625,29.297,-664.062,29.785,-30.762
2.93,28.32,-150.391,29.785,-18.066
-5.859,28.32,-18.066,36.621,-15.625
-19.043,28.32,-330.566,30.762,20.508
-31.25,31.738,-629.395,19.531,53.711
-22.949,28.32,-678.223,23.926,33.203
0,29.785,-252.441,30.762,37.109
-4.395,32.227,-7.812,25.879,81.055
-20.996,25.879,-347.656,16.602,33.691
-24.414,27.832,-771.973,14.16,33.203
-15.137,34.18,-860.352,18.066,78.125
-2.441,31.25,-425.293,20.508,21.973
-0.488,31.738,-8.301,22.949,51.27
-13.672,33.691,-304.199,21.484,24.414
-31.738,33.691,-772.949,13.184,-4.883
-35.645,30.762,-791.992,18.066,29.785
-16.602,19.531,-395.996,20.996,-5.859
-1.465,24.902,-90.82,19.531,-37.109
-13.672,31.25,-280.762,14.16,-5.859
-31.738,26.855,-679.199,13.184,-20.508
-31.25,26.855,-831.055,12.207,-41.016
-10.742,27.344,-526.855,13.184,37.598
0,25.391,-124.512,21.484,112.305
-16.113,26.367,-223.633,23.438,72.754
-27.344,27.344,-545.41,23.438,60.547
-26.367,29.297,-687.988,25.391,93.262
-6.836,28.32,-471.191,32.227,67.871
11.719,24.902,-91.309,36.133,22.949
11.23,28.809,-272.949,36.133,28.809
-0.488,34.18,-650.391,32.227,40.527
-4.395,34.668,-710.449,24.414,16.602
6.836,32.227,-512.207,25.879,-8.789
15.137,29.297,-30.273,24.902,-10.254
13.672,32.227,-76.66,26.855,49.805
-2.93,35.156,-746.582,22.949,58.594
-3.418,33.203,-870.605,15.137,21.484
18.555,32.715,-361.328,22.461,22.949
30.273,30.762,97.656,24.902,-0.977
12.207,25.879,148.926,17.578,27.344
0.488,27.832,-278.32,22.461,-8.789
2.93,28.32,-616.699,24.414,-41.504
15.625,32.715,-441.406,20.02,16.602
33.691,34.668,-41.504,23.438,13.184
19.531,27.344,38.086,23.926,8.789
-1.465,27.344,-145.996,24.414,83.984
-5.371,25.879,-506.836,20.996,114.258
3.906,19.043,-612.793,14.16,16.113
21.973,22.461,-31.25,21.484,-18.555
26.855,28.809,209.473,33.691,-37.109
16.113,30.273,-260.254,36.621,14.648
11.719,32.227,-481.934,28.809,43.945
18.066,30.762,-332.52,28.32,22.949
30.273,30.273,64.453,36.133,9.766
41.992,32.227,276.367,33.691,-9.277
25.391,28.32,-15.137,26.367,6.348
14.648,28.809,-363.77,24.902,29.785
12.207,34.668,-395.508,24.414,61.035
19.043,31.738,-97.168,31.25,48.34
36.133,29.297,159.668,36.621,5.371
23.438,32.715,-116.699,31.738,26.367
0.977,38.086,-435.547,28.32,21.484
7.324,30.762,-319.336,29.785,-1.953
30.273,26.367,83.984,26.855,54.688
29.297,32.227,403.32,40.039,42.48
18.555,29.785,147.949,46.387,-6.836
17.09,29.297,-244.629,32.715,38.574
4.883,27.832,-410.156,26.855,43.457
4.883,26.367,-162.109,28.32,-30.762
29.785,27.344,323.242,25.879,5.859
34.668,27.344,48.828,26.855,45.898
10.742,31.738,-396.973,24.414,66.895
-3.906,31.738,-356.934,19.531,123.047
12.207,31.25,-125,21.484,71.289
29.785,36.133,313.965,30.762,13.184
26.367,35.645,250.977,33.203,44.922
11.23,32.715,-185.547,28.809,58.105
9.766,31.738,-457.52,24.902,6.348
20.02,26.367,-222.656,27.344,7.324
39.062,29.297,280.273,32.227,58.594
33.691,33.203,242.188,30.762,36.621
24.902,34.668,-204.102,28.809,12.695
19.531,36.133,-571.289,27.344,-27.832
23.926,32.715,-420.41,27.832,-20.02
43.945,30.273,249.512,32.715,29.785
41.016,30.762,334.961,27.832,52.246
16.113,32.227,-228.516,22.461,83.496
11.23,32.715,-433.105,26.855,66.406
29.785,30.762,-181.641,27.832,31.25
44.922,30.273,296.875,33.203,19.531
40.039,31.25,369.141,37.109,20.996
21.484,33.203,-48.34,34.18,-2.441
11.719,31.738,-364.746,29.297,-25.879
27.344,30.762,-259.766,28.32,18.555
53.711,30.762,111.328,29.785,27.344
36.621,28.32,270.02,31.25,21.484
15.625,28.32,-160.156,27.832,-4.395
12.207,29.785,-396.484,19.043,-10.254
14.648,25.879,-148.926,11.719,19.043
33.691,25.879,285.156,14.648,57.617
36.133,27.344,507.812,23.926,62.5
8.789,29.297,87.402,22.949,36.133
-0.977,33.203,-348.145,18.555,19.043
15.137,28.809,-243.652,19.043,64.941
26.855,25.879,160.645,21.484,44.434
35.156,27.344,446.289,26.855,23.926
16.602,29.297,166.016,21.973,59.082
11.719,29.297,-355.469,16.113,-16.602
28.32,27.344,-311.523,15.137,-3.906
29.785,28.809,169.434,18.555,72.754
43.457,27.832,553.711,20.02,79.102
36.621,30.273,112.793,23.438,24.902
13.184,32.227,-416.016,23.926,-5.371
22.461,32.227,-269.043,14.648,-13.184
40.527,33.203,119.629,17.09,1.953
42.969,32.227,520.996,19.531,43.457
28.32,31.25,358.887,19.043,41.992
17.09,27.344,-84.473,16.602,34.668
19.531,28.32,-385.254,12.695,5.859
30.273,27.344,-136.719,17.09,-5.371
43.457,27.832,498.535,22.461,21.973
37.109,28.32,341.797,16.113,32.715
17.578,29.785,-236.816,9.277,46.387
16.602,37.109,-265.137,11.23,16.113
35.156,37.109,30.762,13.184,-13.672
57.617,36.621,503.418,16.602,39.062
45.41,37.109,454.59,18.066,31.25
18.555,34.668,-17.09,18.066,-0.488
14.648,33.691,-264.16,17.09,-7.324
25.879,30.273,-104.492,17.578,-28.809
43.457,29.297,287.598,23.926,-31.738
45.898,33.691,324.219,23.926,25.391
33.203,34.18,-136.23,17.578,13.184
29.297,30.762,-280.762,20.02,-37.598
41.016,33.691,-1.465,20.996,-43.457
53.711,36.621,426.27,21.484,-46.387
50.293,36.621,500.977,22.949,-38.574
38.574,36.133,124.512,20.02,-19.531
27.344,36.621,-168.945,19.531,-14.16
34.668,36.133,-108.398,17.578,-2.441
48.34,33.203,298.34,17.578,-47.363
44.922,32.227,501.953,20.996,-30.273
33.691,33.203,109.863,20.02,12.695
20.996,32.715,-301.758,13.184,37.598
31.25,32.715,-179.688,16.113,81.055
46.875,31.25,262.207,22.949,41.016
43.457,34.668,583.984,26.367,22.461
31.25,39.551,114.746,19.531,33.691
12.695,36.133,-287.109,18.555,68.848
25.391,34.18,-44.922,22.461,83.984
32.715,34.18,318.848,20.02,44.434
24.902,38.086,619.141,25.879,63.965
15.137,38.574,366.211,23.438,100.586
4.395,35.156,-131.836,17.578,38.086
0,37.598,-337.402,17.578,-31.738
11.23,38.574,32.227,18.555,14.648
11.23,37.109,587.402,22.949,67.871
-14.16,35.156,281.25,23.438,32.227
-27.344,32.227,-200.195,15.625,77.148
-26.855,33.203,-117.188,15.137,111.328
-9.766,36.133,159.668,21.973,38.086
10.254,37.109,650.391,21.973,48.828
-4.395,35.645,530.273,20.508,76.172
-24.902,36.621,2.441,17.578,45.41
-19.043,34.18,-202.637,18.066,-4.395
-13.672,34.18,121.094,19.531,17.09
-4.883,33.691,457.031,20.996,3.418
-10.254,31.25,339.355,24.414,20.02
-28.809,32.715,29.785,22.949,72.754
-36.133,30.762,-141.602,17.09,16.602
-23.438,29.297,88.867,14.16,0.488
-2.441,28.809,536.133,16.113,-17.09
0.488,26.855,425.293,18.066,-42.969
-18.066,29.785,-127.441,14.16,20.508
-18.555,31.25,-233.398,16.602,48.34
2.93,30.273,90.332,21.484,-1.465
16.113,31.25,593.75,23.438,53.711
12.207,33.691,591.797,20.996,80.566
-10.742,31.738,-27.344,17.578,-5.371
-11.23,30.273,-307.617,18.066,-13.672
10.742,34.668,0.977,20.02,22.461
23.438,35.156,515.137,21.484,27.832
14.648,34.668,583.984,18.066,37.598
-1.953,36.621,93.75,18.066,8.789
-15.137,36.133,-191.895,16.602,-5.859
-0.488,34.668,-69.336,15.625,-7.324
20.508,32.227,377.441,17.578,-5.859
19.531,28.809,606.445,17.09,38.574
9.277,23.926,41.992,15.625,31.25
0.977,26.855,-291.992,18.555,31.25
18.066,30.273,-123.047,20.508,27.832
39.551,29.297,216.309,20.508,12.695
25.879,31.738,643.555,20.996,48.828
16.602,32.227,208.496,21.484,68.848
16.602,34.18,-311.035,22.461,21.484
27.344,34.18,-53.223,15.625,0.488
55.176,28.809,377.93,22.949,35.645
54.688,23.438,647.949,35.645,57.129
25.879,23.926,346.191,35.156,49.805
19.043,23.438,-132.812,34.668,20.02
31.738,19.043,-190.918,33.203,6.836
57.617,23.926,185.059,27.832,26.855
66.895,28.809,465.332,27.344,17.09
58.594,30.762,101.074,32.227,-7.324
40.039,27.344,-320.801,32.227,10.742
32.715,24.902,-141.602,21.973,12.695
49.805,26.367,293.945,19.531,39.551
57.617,27.344,676.758,23.438,84.473
45.898,27.344,438.477,23.926,39.062
18.555,26.855,-6.836,22.949,76.66
20.02,28.32,-206.055,20.996,22.949
47.852,29.785,32.715,23.438,-42.48
53.711,30.273,558.105,28.32,62.012
35.156,27.832,402.832,28.32,30.273
22.949,25.391,-231.934,26.367,-65.918
18.555,26.855,-395.996,28.809,-51.758
40.039,26.367,36.133,29.785,-14.648
50.293,25.879,523.438,34.18,-1.953
38.574,24.414,437.5,36.133,-21.973
33.691,27.344,-120.605,27.344,10.254
32.715,24.902,-181.152,28.809,84.961
48.34,25.391,201.66,33.203,114.746
74.707,29.297,558.105,41.992,49.805
65.43,28.32,521.484,43.945,6.836
47.852,24.902,69.824,35.156,29.785
43.457,23.926,-188.965,35.645,28.809
34.18,26.367,-165.527,30.273,17.578
53.223,30.762,274.414,35.156,0
55.664,33.203,533.691,39.551,-11.23
25.391,28.809,117.676,31.738,12.695
26.855,31.738,-139.648,26.367,50.293
42.969,33.691,-72.754,30.273,49.316
45.41,30.273,294.434,43.457,34.18
43.457,26.367,592.773,43.945,30.273
27.832,27.832,35.156,31.25,14.16
17.09,29.297,-369.141,26.855,5.859
27.832,29.785,-56.152,31.25,51.27
47.363,30.273,322.754,32.715,24.414
42.48,25.391,456.055,30.762,-19.043
23.438,26.855,-46.387,31.25,-26.855
15.137,28.809,-394.531,19.531,8.789
33.691,26.855,-72.754,19.043,59.082
52.734,29.785,323.73,24.902,32.227
47.363,32.715,568.848,23.438,25.391
41.016,30.762,247.559,24.902,23.926
36.133,31.738,-214.844,26.855,24.902
49.316,31.25,-285.156,31.738,46.875
61.523,27.344,81.055,40.039,6.836
50.781,25.391,528.809,42.48,31.738
42.48,27.832,287.598,40.039,61.523
32.715,27.832,-300.293,39.062,37.598
38.574,30.762,-416.016,37.598,33.203
60.059,30.273,26.367,36.621,12.695
70.312,32.715,507.812,39.062,-6.836
57.617,32.715,240.234,35.156,5.859
35.645,29.785,-357.422,28.809,65.43
41.504,30.273,-369.141,32.227,-0.977
64.453,27.832,39.062,30.762,-42.48
82.031,29.297,452.148,28.809,-8.789
60.547,32.715,387.695,26.855,65.43
35.645,32.715,-172.852,24.414,82.52
33.691,33.691,-420.41,25.391,54.688
47.363,35.156,-95.215,28.809,97.656
64.941,31.738,313.965,29.785,74.707
56.641,30.273,294.434,28.32,3.906
34.668,28.809,-312.012,23.926,-19.043
23.926,24.414,-410.645,19.531,21.484
32.227,23.926,-14.16,24.414,-18.066
54.688,28.809,426.758,29.297,-3.906
51.758,28.809,483.398,28.32,60.547
38.574,29.297,-17.578,28.32,53.223
38.086,30.273,-298.34,24.902,41.504
44.434,29.297,-124.023,26.367,20.02
59.082,29.785,277.344,30.273,-20.996
60.547,25.879,377.441,34.668,18.066
52.246,27.344,-192.383,33.203,34.18
48.34,33.691,-468.262,24.414,-4.395
62.988,32.715,-23.438,25.391,24.902
72.266,30.273,433.594,29.785,44.922
51.758,28.32,580.566,21.973,47.363
36.621,27.832,178.711,18.066,56.152
32.227,28.32,-217.773,19.531,46.387
37.598,30.273,-122.559,18.555,53.223
54.199,26.855,297.852,22.461,48.34
52.246,25.879,524.414,20.508,24.414
32.715,32.227,224.609,15.625,71.289
28.32,35.156,-261.23,18.555,86.426
43.457,35.645,-313.965,25.391,40.527
57.617,32.715,196.777,28.32,25.391
66.895,30.762,588.379,33.691,66.406
63.477,27.832,208.008,35.156,53.223
46.875,29.785,-196.777,31.738,5.859
41.504,31.738,-141.113,34.668,-9.766
61.035,24.414,230.957,34.18,5.371
69.336,25.879,588.379,38.086,-4.883
36.621,29.297,212.402,38.086,-31.25
8.789,27.832,-352.051,27.832,-16.602
20.508,26.367,-187.5,27.344,15.625
39.551,25.879,107.422,28.809,-7.324
41.504,28.32,438.477,32.227,-17.09
41.016,33.691,382.324,32.227,43.457
31.738,34.668,-220.703,26.367,34.668
31.738,28.809,-226.562,28.32,4.395
47.363,28.32,232.422,26.367,10.254
62.5,28.32,562.5,24.902,12.695
48.34,29.297,449.707,26.855,11.719
27.344,34.668,-19.043,27.832,-11.719
30.273,33.203,-155.273,26.855,20.02
46.875,29.785,142.578,28.32,53.711
52.246,32.227,522.949,34.18,4.395
40.527,31.25,395.508,32.715,-29.297
31.25,29.297,-225.098,26.367,-30.762
23.926,31.25,-258.301,20.996,41.016
40.039,32.227,229.004,24.902,85.938
62.5,35.156,651.367,30.273,99.609
55.664,32.715,604.492,28.809,60.059
31.738,30.273,67.383,26.367,11.719
23.438,34.18,-174.805,23.438,40.527
40.527,32.715,-39.551,25.391,33.691
49.805,30.273,394.043,29.785,15.137
49.805,32.715,621.094,31.738,49.316
38.574,33.691,173.828,27.832,45.41
29.297,31.738,-312.012,24.902,6.348
38.574,28.809,-140.137,26.367,2.93
58.594,30.273,464.844,28.32,36.621
62.012,33.691,728.516,32.227,68.359
38.574,33.691,76.172,27.832,10.742
20.508,31.738,-426.27,22.461,-4.395
27.344,28.809,-17.09,18.066,26.855
39.062,31.25,435.059,20.508,6.348
34.668,34.668,657.715,27.344,48.34
15.137,36.133,244.629,24.902,21.484
10.254,34.668,-259.277,20.02,-41.016
16.602,30.273,-201.172,18.066,8.301
34.668,31.25,180.664,19.531,42.48
27.832,35.156,487.305,21.484,3.418
0,35.645,206.055,19.043,28.809
-13.672,32.715,-325.195,13.672,59.082
-8.789,32.715,-166.016,11.719,23.438
-0.488,33.691,337.402,16.602,39.551
8.301,32.227,625.977,17.578,53.711
-5.371,30.762,300.781,17.578,25.879
-35.645,32.715,-204.59,13.672,25.879
-37.109,29.297,-243.164,13.184,33.203
-15.625,25.391,98.633,20.508,4.883
-3.418,25.879,487.305,23.926,20.02
-7.812,26.855,237.793,25.391,59.082
-23.926,30.273,-314.941,20.508,69.336
-28.32,26.855,-307.129,20.996,91.309
-3.906,25.391,116.699,22.461,68.848
11.23,30.273,523.438,27.832,51.27
5.859,30.273,365.234,24.414,60.547
-20.02,29.297,-287.598,13.184,0
-16.602,27.832,-404.297,26.855,-32.227
6.836,24.902,43.945,28.32,26.855
5.371,27.832,437.012,23.926,6.348
1.953,30.762,379.395,27.832,14.16
-11.23,32.227,-120.605,28.32,71.777
-20.02,29.297,-470.215,28.809,17.09
-2.93,27.344,-154.297,25.391,21.484
17.09,32.715,416.992,27.344,41.504
5.371,32.715,490.723,27.832,25.391
-18.066,30.273,-229.004,20.02,17.09
-16.113,29.785,-654.297,17.578,-14.648
4.395,27.344,-82.52,24.902,-9.766
16.113,30.762,431.152,26.855,-31.738
13.184,37.109,524.414,25.879,-2.93
-2.93,35.156,95.703,24.902,37.598
-11.719,30.762,-271.973,20.02,30.273
2.441,27.832,-124.023,24.414,5.371
17.09,29.785,247.07,29.785,20.508
15.625,31.738,403.32,29.297,18.555
7.812,29.785,-75.684,25.391,-12.207
6.836,32.227,-416.016,24.414,38.574
9.277,28.32,-55.176,29.297,21.973
23.926,26.855,379.883,28.809,-50.293
31.738,32.715,572.266,24.414,8.301
9.766,29.297,161.133,24.414,-3.906
1.465,25.879,-254.395,27.832,-45.41
21.973,28.809,-173.828,27.832,-33.691
45.41,31.738,276.855,25.391,11.719
45.41,27.344,595.703,25.879,66.895
13.672,28.32,105.469,25.391,29.297
15.625,32.715,-387.207,24.414,0
30.273,29.785,-252.441,24.414,-27.832
26.367,28.809,135.742,25.879,-33.691
25.879,33.203,512.207,28.32,6.348
26.855,36.621,193.359,27.344,31.25
11.23,34.18,-500,18.555,-18.066
10.254,30.762,-377.93,21.973,-0.488
41.504,30.273,147.461,28.809,58.594
47.363,33.203,382.324,28.809,36.133
36.133,33.691,203.613,28.809,62.5
12.207,29.297,-255.371,25.391,80.078
5.859,28.809,-471.68,22.461,83.984
33.203,32.227,-114.258,25.391,118.164
52.246,32.227,395.996,29.297,98.145
30.273,31.25,275.879,28.32,68.359
-0.977,30.762,-525.391,25.391,9.277
12.207,29.785,-676.758,27.344,-20.996
35.645,26.855,-57.129,27.344,21.973
31.25,25.879,412.598,26.855,97.168
11.719,25.879,259.766,24.414,29.785
13.184,27.832,-309.57,21.484,-20.508
19.531,32.227,-479.492,19.531,25.879
33.203,32.715,-238.281,20.996,35.156
47.852,31.738,115.234,28.32,57.129
49.316,36.621,192.871,25.391,56.641
25.391,37.598,-208.496,18.555,55.176
4.883,32.227,-525.391,24.414,3.906
21.973,28.809,-236.328,24.902,17.578
44.434,33.203,221.191,22.949,40.527
34.668,34.668,289.062,20.02,13.184
8.789,32.715,-211.914,13.184,29.785
8.789,31.25,-555.664,11.719,66.895
18.555,27.344,-302.734,13.184,84.961
38.574,29.297,124.512,23.438,72.754
34.18,25.391,279.785,26.367,60.059
5.859,24.414,-306.152,17.578,24.902
3.906,29.297,-979.98,14.648,-13.184
19.043,30.762,-616.699,23.438,-1.953
30.762,29.785,206.055,30.762,45.41
26.367,29.297,450.195,26.855,57.617
20.996,31.25,-33.203,23.926,10.742
19.531,28.32,-474.609,27.832,44.922
25.391,30.273,-388.184,27.832,39.551
41.016,30.273,-11.23,27.832,-27.832
45.41,28.32,289.062,37.598,-19.531
32.715,26.367,3.418,41.016,53.223
20.02,23.438,-483.398,34.18,55.176
36.133,29.297,-541.016,35.645,36.621
54.688,27.344,-146.484,40.527,-1.465
60.059,23.438,343.75,42.969,-17.09
41.016,26.367,93.75,37.109,5.859
19.531,28.32,-604.004,28.32,-4.883
32.227,28.809,-479.492,26.367,19.043
51.758,28.32,64.941,26.367,-3.906
52.246,28.32,395.508,28.809,-16.113
43.945,27.344,213.867,25.391,41.016
36.133,27.344,-324.219,19.043,86.914
35.156,26.855,-426.758,19.043,43.457
47.363,23.926,-41.992,20.996,35.645
55.664,24.414,241.699,22.949,26.367
40.039,26.855,152.832,21.484,64.941
29.297,26.367,-455.566,20.508,64.453
28.809,25.391,-589.844,22.461,35.156
28.32,25.391,1.465,28.809,36.621
45.41,26.855,443.848,31.738,67.871
48.34,30.273,319.336,31.25,85.938
31.738,32.715,-288.574,26.855,32.715
30.273,30.273,-469.727,22.461,23.926
42.48,27.832,-154.297,27.344,33.203
50.781,28.809,244.629,31.738,8.789
45.898,30.762,299.805,38.574,12.207
34.668,31.738,-378.906,39.551,19.043
24.902,32.227,-746.094,31.738,-14.16
35.645,29.297,-190.43,33.203,18.066
59.57,28.809,297.363,31.738,54.688
47.852,31.738,335.449,27.832,36.133
28.32,33.203,-167.969,27.344,42.969
33.691,32.715,-602.051,23.926,50.293
42.969,34.18,-390.625,26.367,22.461
59.082,31.738,146.973,28.32,51.27
63.477,31.25,206.543,30.273,30.762
42.48,35.645,-236.328,31.738,17.578
36.133,32.227,-555.176,24.902,52.734
50.293,32.227,-501.953,20.508,29.785
55.176,32.715,-103.027,18.555,21.484
54.688,31.738,257.324,17.578,32.715
40.039,39.062,-148.926,14.648,21.973
17.578,38.574,-660.645,14.648,24.414
20.508,30.762,-488.281,15.625,19.531
42.48,29.297,-73.242,16.113,2.93
49.316,29.297,220.215,17.09,4.883
31.738,31.738,-167.969,23.438,-6.836
18.555,33.691,-767.09,19.531,33.203
28.809,31.25,-588.379,20.02,31.738
53.711,32.227,-128.906,26.367,-42.48
52.734,33.203,133.301,26.855,3.418
23.438,30.273,-102.539,31.25,38.574
16.113,30.762,-758.789,20.996,-25.391
28.32,28.809,-689.453,16.602,-52.734
57.617,28.32,-31.25,24.414,-22.461
63.477,32.715,329.59,30.273,-1.465
38.086,32.227,131.348,29.297,43.945
34.668,30.762,-469.238,27.344,23.926
32.715,28.809,-570.312,30.273,28.32
40.039,27.344,-146.973,32.715,77.637
50.293,28.809,173.34,36.133,13.672
35.645,31.738,74.707,36.133,20.996
26.367,31.738,-501.953,30.273,62.012
30.762,32.227,-755.371,31.25,9.766
52.246,28.32,-365.234,36.133,-44.922
67.871,32.227,160.156,29.785,-7.324
57.617,37.109,279.297,26.855,77.637
41.504,33.691,-463.379,18.555,54.199
51.758,33.691,-786.133,16.113,49.316
53.711,35.645,-221.191,22.461,66.895
53.711,34.18,210.449,28.809,46.875
59.082,35.156,205.078,33.203,49.316
35.156,33.203,-324.219,20.02,42.969
28.809,31.25,-692.871,7.812,-3.906
45.898,34.18,-450.684,7.324,28.32
54.199,34.18,-30.273,13.184,40.527
52.734,27.832,160.156,13.672,-30.762
31.738,24.414,-347.656,11.719,-41.992
35.156,28.32,-931.152,5.371,-48.828
63.965,31.738,-468.262,8.789,10.742
55.664,33.691,220.215,19.043,40.039
37.598,31.738,348.633,13.184,20.02
30.273,29.297,-148.438,7.812,11.719
14.648,28.809,-581.055,14.648,12.207
14.16,29.297,-371.582,15.625,23.438
33.691,29.297,68.359,19.043,15.625
40.039,28.32,247.07,26.855,39.062
29.785,28.809,-216.309,21.484,38.574
21.484,27.832,-748.535,13.672,-10.254
34.668,28.809,-410.156,17.09,0
50.293,32.715,215.82,17.578,43.945
51.27,31.25,462.891,21.484,48.34
35.156,28.809,67.383,22.949,31.25
14.16,30.273,-534.668,14.16,18.555
17.578,31.25,-407.715,11.23,27.832
41.504,29.297,122.559,17.09,41.504
46.875,29.785,434.57,22.461,58.594
23.438,32.227,128.418,18.555,41.504
8.301,29.297,-534.668,8.301,-38.574
23.438,26.855,-556.641,16.602,15.137
39.551,27.832,-26.855,21.973,50.293
35.645,28.32,413.574,16.113,16.113
17.09,27.832,245.117,12.695,32.715
-3.418,25.879,-382.812,12.207,-3.906
-2.93,25.879,-495.117,16.113,-43.457
21.973,30.762,-10.742,14.648,-7.812
29.297,34.18,426.758,21.484,59.57
8.789,32.715,236.328,23.438,44.434
-13.672,33.691,-536.621,11.23,-15.137
-13.184,33.203,-605.469,11.23,49.805
3.906,34.668,-68.359,20.508,113.77
3.906,32.227,257.812,21.484,47.852
-11.719,28.809,346.68,20.508,20.02
-27.832,28.809,-314.453,22.949,21.973
-20.02,28.809,-707.031,22.461,2.441
0.977,30.273,-83.496,23.926,37.109
-3.906,28.32,386.719,30.273,31.25
-14.648,32.227,338.867,27.832,3.418
-21.973,32.715,-203.613,27.832,-16.602
-40.039,31.25,-545.898,21.484,-33.691
-31.738,32.227,-227.539,16.113,-12.695
-18.555,28.809,232.91,18.555,3.906
-25.879,30.273,297.852,19.531,68.848
-34.18,29.297,-314.941,21.484,67.871
-41.504,28.809,-698.242,21.973,88.867
-32.227,33.203,-240.723,25.879,86.426
-3.418,29.297,283.203,28.809,49.316
-2.441,30.273,377.93,27.832,34.668
-28.809,34.668,-86.914,30.273,62.012
-27.344,36.133,-583.496,28.809,14.16
-9.766,34.668,-388.184,28.32,-2.93
0.488,33.691,109.863,37.598,46.387
-6.836,31.738,307.129,45.41,37.598
-20.02,32.715,-116.699,37.109,29.785
-22.949,34.668,-708.496,28.809,0
-5.371,33.691,-597.168,32.715,-5.859
18.066,31.738,-30.273,34.668,50.293
21.973,32.227,271.484,33.691,63.477
5.371,34.18,-11.719,33.691,21.484
-10.742,31.738,-714.355,29.785,6.348
-6.348,29.297,-687.5,28.32,8.789
16.113,25.879,60.547,33.691,75.195
25.879,23.926,386.719,34.668,73.242
8.789,27.832,20.02,30.273,11.719
-4.883,28.32,-525.879,29.297,19.531
6.348,29.785,-515.137,29.297,49.316
17.578,30.273,-197.754,28.809,6.836
26.855,28.32,33.203,32.715,-59.57
8.301,27.344,55.664,34.668,-30.273
-9.766,29.785,-595.703,25.879,-26.367
4.395,28.809,-761.719,20.02,1.953
19.043,23.926,-115.723,31.25,9.766
22.949,28.809,310.547,38.086,6.348
17.09,31.25,204.102,34.668,8.301
6.836,30.273,-355.469,35.645,26.367
13.184,28.809,-605.957,34.18,-5.859
29.785,28.809,-242.676,33.203,-45.898
41.992,27.832,205.078,37.109,-3.906
33.203,22.461,113.281,35.156,24.902
4.883,23.926,-475.586,28.32,116.699
11.23,29.785,-735.84,21.973,165.527
29.297,32.715,-241.211,27.832,69.824
41.016,28.809,244.141,33.203,39.551
40.039,29.785,243.652,29.785,62.012
22.949,34.668,-315.918,24.902,62.988
19.531,30.762,-705.078,21.973,86.914
29.785,26.367,-417.969,31.25,43.945
37.109,28.32,130.371,35.645,8.789
29.785,33.203,272.461,30.762,29.297
24.414,32.227,-249.023,30.273,31.738
23.438,29.785,-690.918,29.785,58.105
36.133,31.25,-448.242,32.227,34.668
53.711,28.809,142.09,37.109,20.508
50.293,24.414,344.238,36.621,-27.832
33.203,25.391,-108.887,38.086,5.859
21.484,27.832,-729.004,32.715,1.953
30.273,27.344,-414.551,28.809,-27.344
45.41,27.344,269.043,32.227,-8.789
45.898,28.32,472.168,32.715,21.484
26.367,27.832,71.777,29.785,51.27
20.996,28.809,-453.125,21.973,77.637
37.598,31.25,-315.43,19.531,49.805
48.34,30.273,113.281,23.926,14.16
39.062,29.785,349.609,20.996,43.457
17.578,32.227,143.066,16.113,36.133
15.137,34.18,-538.086,14.648,-2.441
33.203,29.785,-471.68,16.113,-1.465
44.922,27.344,266.113,14.648,-14.648
51.758,29.785,591.309,15.625,17.09
33.691,29.785,286.621,11.719,7.812
20.02,31.25,-317.871,8.301,-63.965
23.438,32.715,-281.25,18.066,-19.043
40.039,29.785,209.961,24.414,-7.812
52.246,24.414,540.039,24.902,-19.531
35.645,24.902,274.902,20.996,14.648
25.391,26.367,-282.227,16.113,54.199
30.762,22.461,-322.754,14.16,20.508
39.062,22.949,260.254,14.16,50.781
47.363,22.461,693.359,18.066,118.164
37.598,21.484,510.254,13.672,49.805
14.648,22.461,-208.984,5.371,9.766
20.996,22.949,-430.664,0.488,39.062
47.363,27.832,235.352,5.859,48.34
57.617,30.762,695.312,14.648,76.172
32.715,28.809,589.355,12.207,71.289
15.137,29.297,-10.254,10.742,12.695
28.32,24.902,-349.121,13.672,7.812
37.109,24.414,78.613,10.254,85.449
41.504,27.832,602.539,13.672,83.496
39.551,22.949,570.801,18.066,15.137
23.926,25.879,35.645,11.719,49.316
16.113,32.227,-406.25,12.695,40.039
26.367,33.203,42.969,20.508,4.395
46.387,29.297,620.117,20.508,-6.348
36.133,26.367,645.02,18.555,-21.973
3.418,24.414,162.598,12.207,24.902
11.719,25.391,-196.289,8.789,59.082
27.832,22.949,112.305,13.672,79.59
41.504,21.973,395.508,14.16,13.184
40.527,26.855,441.406,13.184,-71.777
17.578,26.855,125.977,10.742,-80.566
18.555,26.855,-233.398,9.277,-23.926
51.27,23.438,75.195,11.719,24.414
57.129,24.902,533.203,12.695,50.781
31.25,25.391,703.613,14.16,58.105
20.508,23.438,325.195,10.254,44.434
16.113,26.855,-219.727,7.324,36.621
36.133,28.809,-80.078,10.254,15.137
62.012,30.273,418.945,11.719,-17.578
52.246,29.785,694.336,16.113,41.016
38.574,30.273,264.648,14.16,58.105
30.762,31.25,-332.52,13.672,-10.742
30.273,30.762,-114.746,18.066,42.48
56.152,34.18,446.289,19.043,90.332
60.059,32.227,647.461,17.578,52.734
46.387,28.32,399.902,14.648,51.27
50.293,32.227,-343.262,10.254,21.484
41.016,32.227,-530.273,8.789,30.762
40.527,28.809,191.406,18.555,55.664
49.316,28.32,705.078,20.996,99.609
42.969,29.297,516.602,15.625,102.051
31.738,28.32,-131.836,12.695,34.668
30.762,28.32,-354.004,11.719,36.621
48.828,27.344,71.777,15.137,44.922
53.223,26.855,534.668,17.578,13.184
34.18,25.879,460.449,17.09,8.301
18.066,26.855,-120.605,16.113,64.453
21.484,26.855,-289.551,10.254,111.328
37.109,21.973,165.527,6.836,130.859
42.48,24.902,471.191,7.324,49.316
32.227,27.832,413.086,7.812,24.414
20.508,23.438,-195.312,9.766,32.227
21.484,24.902,-536.133,11.719,11.23
37.598,26.855,-43.945,12.207,1.953
45.898,22.461,400.879,7.812,38.086
33.203,25.391,369.141,9.277,83.984
16.113,27.832,-154.297,8.301,65.43
10.742,28.809,-460.938,6.836,67.871
39.551,32.715,-141.113,14.648,-5.371
58.105,29.297,318.848,15.625,-22.949
39.551,29.297,410.645,14.648,21.973
19.531,30.762,-38.086,19.531,27.832
18.066,31.738,-637.695,19.531,-4.395
33.203,31.25,-320.801,18.066,11.719
31.738,32.227,533.203,18.066,56.152
33.691,34.668,609.863,18.555,24.414
26.855,34.18,45.898,16.602,39.062
13.672,31.25,-613.281,10.742,10.254
29.297,28.809,-297.852,13.672,8.789
44.434,32.715,460.938,14.16,49.316
36.133,34.18,562.012,10.742,20.996
27.344,34.18,71.289,14.16,-36.621
25.879,33.691,-416.504,12.207,-29.785
42.969,31.25,-247.559,13.672,0.488
52.734,31.738,229.492,18.066,-25.879
41.992,33.203,447.266,19.531,-20.02
23.926,35.645,113.77,16.113,-14.16
9.766,34.668,-376.465,11.23,3.906
18.066,30.762,-392.09,5.859,42.48
33.691,28.32,120.605,5.859,68.848
32.227,31.738,502.93,10.742,31.25
24.414,33.691,177.734,8.301,19.043
11.23,29.785,-375.977,7.812,56.152
7.324,29.785,-325.684,9.277,42.48
32.227,32.227,146.484,9.277,-32.227
38.086,28.32,495.605,14.648,19.043
28.32,28.32,348.145,14.648,54.199
19.043,32.715,-362.305,0.977,22.949
8.301,28.809,-559.082,-5.859,15.137
27.344,23.438,135.254,2.93,2.93
43.457,27.344,440.918,17.09,25.391
32.227,10.254,307.129,15.625,38.574
17.09,5.859,-226.562,15.625,3.906
24.414,21.973,-505.371,19.531,29.297
51.27,26.855,158.203,15.137,42.969
52.734,47.852,562.5,18.066,-7.324
37.598,41.992,366.699,20.508,-35.645
32.715,34.18,-83.984,15.137,-11.719
45.898,40.527,-294.434,11.23,16.602
60.059,31.738,114.746,20.02,40.527
57.129,28.809,516.113,24.414,34.18
47.363,33.203,460.449,21.484,9.766
42.969,35.645,-126.465,18.066,39.551
39.062,35.156,-567.383,15.137,77.148
43.945,35.645,-96.191,13.184,24.902
57.129,36.621,541.016,18.555,1.953
37.109,31.738,600.098,21.973,51.758
16.113,36.133,47.852,14.648,19.043
15.137,38.086,-334.961,13.672,23.926
22.949,36.133,-15.625,16.113,29.297
29.785,36.621,381.348,17.09,10.254
25.879,37.598,540.039,21.973,49.316
7.324,34.668,160.156,17.09,30.762
-7.812,34.18,-285.156,12.207,26.855
9.766,36.133,-123.047,15.625,48.828
30.273,34.668,392.09,22.949,68.359
18.555,32.227,622.07,17.578,36.621
-17.09,31.738,303.711,12.207,14.16
-30.762,31.738,-365.723,16.602,24.902
-6.836,31.738,-336.914,18.555,-36.621
-2.441,34.18,476.074,25.391,-29.785
-7.812,31.25,744.141,25.391,10.254
-8.301,27.832,393.066,17.578,28.32
-31.25,29.297,-77.637,16.113,71.289
-16.602,30.762,-117.676,21.973,33.203
11.719,32.227,369.141,23.926,44.434
3.906,29.297,631.348,19.531,91.309
-20.508,31.738,354.98,20.02,40.527
-29.785,36.133,-191.406,15.137,27.344
-7.812,32.715,-277.344,11.719,30.762
9.766,27.832,449.707,19.531,4.395
18.555,30.273,850.098,24.414,25.391
11.23,31.25,610.84,20.996,61.035
2.441,30.273,-6.348,13.184,16.602
4.883,30.273,-81.055,15.625,34.18
8.789,27.832,435.059,22.461,43.945
20.996,30.273,751.953,19.531,8.789
16.113,30.273,587.891,13.672,-16.113
-2.93,25.391,-90.332,10.742,-49.316
2.93,25.879,-317.871,7.812,14.648
23.926,27.832,399.902,16.113,54.199
29.297,26.367,910.645,21.973,20.02
19.531,23.926,791.992,20.02,40.527
0.977,24.414,227.051,15.625,59.57
-0.977,20.996,-95.703,10.742,-15.137
20.508,18.555,356.445,11.23,-21.484
28.809,23.926,824.707,17.09,15.137
17.578,26.855,771.973,18.555,4.883
1.953,25.879,228.027,22.949,-8.789
-2.93,26.855,-70.312,25.879,-1.953
10.254,26.367,232.422,22.949,11.719
19.043,29.297,694.824,22.949,5.371
14.648,28.809,874.512,21.973,26.855
2.441,25.391,395.508,18.555,19.043
-2.441,25.879,-224.609,15.625,-40.527
7.812,28.32,204.102,17.578,14.16
27.344,27.344,932.617,25.879,69.336
26.367,26.855,921.387,27.344,11.23
10.254,28.32,514.648,26.855,3.418
7.812,27.344,88.867,28.809,14.648
26.367,29.297,295.41,28.809,-4.883
37.109,27.344,833.984,30.273,41.504
30.762,26.855,865.234,26.855,58.105
20.02,31.25,448.242,25.391,64.453
15.625,32.715,-83.984,27.344,77.148
37.598,33.203,38.574,26.367,39.062
62.988,30.273,770.508,26.855,-17.09
42.969,28.32,-986.816,35.156,22.461
18.555,27.832,540.039,31.738,14.648
20.02,24.414,44.922,26.367,-17.578
32.227,24.414,210.938,29.785,18.066
54.688,22.949,713.867,26.855,42.969
56.152,24.414,921.875,25.879,49.805
35.156,27.832,583.008,31.738,16.602
29.785,24.902,-19.043,31.738,40.039
41.016,25.391,-85.449,30.762,-9.277
52.734,34.18,577.148,33.691,10.254
50.293,34.18,890.625,28.809,44.434
26.855,30.762,611.816,19.531,-10.742
24.902,32.227,-2.441,10.742,10.742
32.227,30.273,-227.051,13.184,-0.488
39.062,29.297,464.844,21.484,-9.766
38.086,31.738,841.309,18.066,9.766
24.902,32.227,612.305,19.043,46.875
18.555,29.297,135.254,20.996,56.152
23.438,27.832,-67.871,16.113,1.465
40.039,25.879,268.066,19.043,-41.016
43.945,26.367,724.121,24.414,41.016
31.738,26.367,737.793,18.555,44.434
19.043,22.949,201.66,15.625,44.922
17.09,22.461,-261.23,21.484,37.109
36.621,21.973,192.383,22.949,-33.691
49.805,20.996,851.562,24.414,-10.742
41.992,20.996,781.738,22.461,13.184
29.297,24.902,219.238,22.461,-14.16
26.855,26.367,-51.27,26.367,41.504
48.34,27.344,324.219,23.926,55.664
63.965,26.367,689.453,29.785,12.207
53.711,25.391,647.461,36.621,62.012
36.133,29.297,182.129,30.762,47.852
44.922,27.344,-263.184,23.926,42.48
63.477,29.785,63.477,23.438,7.812
70.312,33.691,822.266,27.344,18.555
56.152,31.25,882.812,25.879,53.223
23.438,30.762,403.32,22.461,59.082
13.672,31.738,-39.551,21.973,47.363
38.086,32.715,157.227,18.555,34.18
54.688,33.203,665.039,15.625,36.133
44.434,33.691,771.973,16.113,31.738
31.25,34.668,375,18.555,29.785
25.879,30.762,-110.84,22.949,43.457
39.551,31.25,-10.742,20.996,45.898
59.57,33.203,511.719,17.09,36.133
60.059,31.738,766.113,15.625,16.113
42.48,35.645,534.18,13.672,10.742
33.691,39.551,4.883,12.207,3.418
41.016,37.598,59.57,11.719,-8.789
60.059,38.086,683.594,13.184,16.602
60.547,38.086,940.43,11.23,78.125
39.062,39.551,613.77,7.324,57.129
38.086,38.086,-39.551,0.488,34.18
42.48,33.203,-137.695,-4.883,0
50.781,34.18,534.668,2.441,24.902
58.594,35.645,821.289,10.254,70.801
46.387,32.715,615.723,11.719,15.625
30.273,27.832,106.934,11.23,7.812
27.344,27.832,-104.98,12.207,67.383
46.387,28.32,516.602,20.996,23.926
59.082,25.391,978.516,24.414,2.441
35.645,25.391,793.945,23.438,65.43
25.391,25.391,200.684,23.926,54.688
27.832,26.367,-11.719,25.879,5.859
45.41,25.879,485.352,28.809,-9.277
51.27,22.461,836.914,28.809,-45.898
32.227,20.996,666.504,25.879,6.348
27.344,22.949,161.133,23.438,60.547
24.414,23.926,2.93,20.508,22.949
35.645,24.902,516.113,23.438,2.93
56.152,29.297,982.422,27.344,44.434
48.34,29.297,863.77,20.508,23.438
25.391,28.809,303.223,15.137,2.93
26.855,32.715,-143.066,14.648,-3.418
49.316,34.668,373.535,11.719,59.57
61.523,33.691,995.117,3.906,90.82
52.246,33.691,930.176,3.418,85.449
42.48,35.645,473.145,0.977,96.191
38.086,34.668,-19.043,-1.465,46.875
50.293,31.25,214.844,-2.441,-0.488
56.641,34.668,826.172,-4.883,13.184
33.203,34.18,923.828,-5.371,84.473
20.996,31.25,504.883,-7.812,90.332
23.926,27.344,-108.398,-13.184,55.664
31.25,13.672,0.488,-5.371,0.488
55.176,14.648,791.504,14.16,28.32
51.758,30.273,858.398,4.883,48.828
33.203,32.227,330.078,-12.207,3.418
31.25,27.832,-57.617,-16.113,-16.113
34.18,24.902,80.078,-15.137,-51.27
49.316,27.344,515.625,-8.301,-43.945
50.781,32.715,680.664,-9.277,30.273
37.109,36.621,448.242,-13.672,18.066
25.391,36.621,-142.578,-13.672,-36.621
36.133,38.086,-229.004,-15.137,-35.156
61.035,47.363,571.289,-16.602,41.504
69.824,49.805,801.758,-20.02,36.621
60.547,48.828,375.977,-19.043,-20.508
58.105,51.27,-124.512,-16.113,-23.438
65.43,55.176,-130.859,-19.043,0.488
77.637,60.059,406.738,-19.531,18.555
92.285,65.918,568.848,-12.695,-20.508
85.938,68.848,242.676,-16.602,15.137
78.613,70.801,-283.203,-19.043,18.555
80.566,67.383,-430.664,-14.16,13.184
104.004,64.453,261.23,-3.906,76.172
122.559,63.965,700.684,6.348,46.875
102.539,62.5,390.137,0,0
82.52,64.453,-195.312,-2.93,0
77.637,58.594,-371.094,1.953,17.578
90.82,55.176,132.324,12.207,53.711
94.727,51.27,450.195,20.02,19.531
77.148,46.387,297.852,24.902,52.246
64.453,48.34,-248.535,29.785,45.898
63.477,52.246,-596.68,21.973,0.977
74.707,45.41,-225.586,25.391,15.137
82.031,41.992,190.918,32.715,-6.348
69.824,43.945,188.477,28.32,-1.465
54.199,43.457,-176.27,32.715,13.184
48.34,41.992,-681.641,26.855,48.828
66.895,39.062,-404.297,22.461,37.598
83.008,34.668,325.195,35.645,34.18
78.125,32.227,271.973,40.039,35.645
61.035,31.738,-284.18,37.109,5.371
63.477,32.715,-660.645,34.668,17.09
71.289,35.645,-404.785,32.227,5.859
56.152,34.18,-7.324,33.203,-11.23
51.758,33.691,2.93,37.598,31.25
41.016,35.645,-312.012,35.645,47.852
46.387,38.574,-717.285,30.273,43.945
55.176,35.156,-601.074,30.762,19.043
64.453,30.762,-0.977,31.738,17.09
64.453,28.32,125.488,32.227,21.484
37.598,30.762,-287.598,33.203,41.016
28.32,34.18,-829.59,29.297,49.805
57.129,31.738,-811.523,42.48,3.906
72.266,34.668,-122.07,57.617,10.254
42.969,40.039,69.824,34.668,12.695
23.926,35.156,-431.152,26.855,25.879
7.324,32.227,-914.062,24.414,25.879
19.531,37.109,-870.117,16.602,-51.758
42.48,37.109,-212.891,19.043,-6.348
28.32,32.715,153.32,20.508,75.195
11.719,33.203,-240.723,26.367,92.773
3.906,34.668,-819.336,28.32,67.871
18.066,38.086,-895.02,31.25,29.297
42.969,36.133,-378.418,36.133,42.969
48.34,33.203,-52.734,40.039,86.426
29.785,36.133,-402.344,45.898,85.449
17.09,37.598,-868.652,39.062,53.223
20.508,38.086,-994.141,32.715,-12.695
32.715,39.551,-697.266,37.109,-11.23
29.297,39.062,-233.398,35.156,45.41
7.324,39.062,-410.645,32.227,6.836
-9.766,35.645,-895.02,24.902,-56.152
4.395,34.18,-969.727,16.113,-16.602
19.043,32.715,-598.633,23.926,0
6.836,30.762,-186.035,32.715,0.977
-5.371,32.715,-341.797,28.32,86.426
-23.438,32.715,-839.844,24.414,79.102
-10.742,33.203,-1000,27.832,14.16
13.184,33.691,-697.266,31.25,2.441
21.484,32.715,-364.746,32.715,41.992
5.371,25.879,-505.859,27.344,70.312
-21.484,25.391,-842.285,24.414,15.625
-19.043,31.25,-1000,26.367,-4.395
-3.418,32.227,-819.336,27.832,55.176
2.441,30.762,-306.152,29.297,63.477
-4.883,28.32,-382.812,28.809,-0.977
-28.809,25.391,-863.77,25.879,-40.527
-28.809,26.855,-1000,22.461,-6.348
-11.23,27.344,-824.219,23.926,55.664
-20.02,24.414,-380.859,19.531,97.168
-19.043,27.832,-511.719,15.625,39.062
-19.043,28.809,-931.641,20.508,32.227
-23.926,27.832,-988.77,13.184,40.039
-8.301,32.227,-883.789,13.672,6.836
12.207,35.645,-472.656,22.949,-34.18
7.812,40.527,-315.918,17.578,15.137
3.418,41.016,-750.977,9.766,-17.578
0.977,37.598,-1000,4.883,-55.664
5.371,37.598,-900.879,10.742,-3.906
20.02,37.598,-505.859,12.207,42.48
12.207,33.691,-324.707,12.695,70.801
-5.859,34.18,-750,13.672,24.414
-7.324,36.133,-991.211,2.93,-19.043
4.395,31.738,-962.891,5.371,-47.363
10.742,30.762,-653.809,9.766,0.977
17.09,38.086,-339.844,16.602,40.039
15.625,39.551,-605.469,28.32,50.293
7.324,30.762,-961.914,31.738,26.855
-9.766,20.02,-916.016,19.531,13.184
-10.254,17.578,-528.32,13.672,26.367
-7.812,15.137,-228.516,13.184,37.598
-21.973,18.066,-523.926,13.184,55.176
-31.25,21.973,-948.73,22.461,26.367
-16.113,18.066,-966.797,27.832,-29.297
9.277,19.531,-582.031,33.691,0.488
18.066,23.926,-279.785,40.039,47.363
7.324,20.996,-558.594,32.715,57.617
1.953,19.043,-881.836,27.344,100.098
6.348,17.09,-1000,21.973,74.707
15.137,16.113,-784.668,20.02,40.527
24.414,20.996,-133.301,19.531,45.41
16.602,26.855,-170.898,9.277,48.34
13.184,27.832,-733.398,6.836,26.855
23.438,26.367,-927.734,9.277,3.906
35.156,28.32,-531.25,6.836,25.391
45.41,28.809,-60.547,3.906,32.715
26.855,28.809,-169.922,8.301,50.293
10.742,28.809,-737.793,0,46.387
13.672,32.227,-997.559,-8.789,20.02
21.973,32.715,-571.289,-0.977,1.465
34.668,28.809,-23.438,5.371,6.348
23.438,24.414,-37.598,2.93,30.762
7.324,23.438,-491.211,6.348,35.645
7.812,22.949,-882.324,11.719,26.855
21.484,22.949,-659.18,17.578,14.648
28.809,25.391,-0.977,23.438,37.109
22.949,27.344,95.215,24.414,48.34
6.836,22.461,-351.074,20.02,45.41
-3.418,20.996,-791.504,13.184,57.129
13.184,22.949,-704.59,15.137,8.789
29.785,22.461,-83.496,13.184,3.906
22.461,22.461,157.715,15.625,21.973
13.184,24.902,-165.039,12.695,41.016
12.695,27.832,-665.039,6.348,29.297
23.438,26.855,-799.805,4.395,14.16
30.273,25.391,-88.867,3.418,23.926
17.578,26.367,338.379,3.418,-13.184
18.066,29.297,-26.367,1.953,10.254
12.695,29.785,-564.453,-2.93,5.371
17.578,31.25,-489.258,-3.418,14.16
34.668,27.832,139.648,-0.977,36.621
35.645,26.855,240.234,-0.977,17.09
24.414,28.809,-132.324,-2.93,-9.277
19.531,29.297,-530.273,-11.23,-69.824
20.508,25.879,-680.664,-10.742,-58.105
38.086,23.926,-32.715,3.418,33.691
43.457,28.32,562.012,9.766,88.379
33.203,33.691,237.305,6.348,66.895
30.273,27.832,-350.586,5.371,23.926
38.574,27.344,-446.289,7.324,25.391
55.664,34.18,86.426,13.184,33.203
54.688,33.203,449.219,17.578,48.828
46.875,34.18,212.402,15.625,66.895
29.785,32.715,-429.688,13.672,13.184
27.344,29.297,-649.414,11.23,-21.973
47.363,30.273,-42.969,6.836,-14.16
50.293,34.18,465.82,10.254,13.184
32.715,34.668,270.996,10.254,20.508
19.043,31.738,-211.914,5.859,36.133
28.32,31.738,-479.98,7.324,37.598
41.992,29.785,-96.68,11.719,14.16
53.711,28.809,407.227,18.066,5.371
48.34,29.297,245.117,14.648,-14.648
25.391,28.809,-170.898,7.324,18.066
35.156,33.203,-572.266,17.09,13.672
43.945,31.738,-370.117,25.879,-20.508
36.621,30.273,340.82,25.879,55.664
43.457,30.273,323.73,28.32,93.262
34.18,27.832,-87.402,27.344,63.477
32.227,33.203,-453.125,19.043,28.809
53.223,37.109,-305.664,20.508,10.742
60.547,31.738,444.336,30.762,29.297
43.457,26.855,564.941,20.02,60.547
31.738,32.227,83.496,19.043,66.895
17.578,21.484,-359.375,5.859,52.246
72.266,68.359,-168.945,45.898,38.086
229.004,216.309,443.359,200.195,36.621
233.887,227.539,435.547,214.355,23.926
134.277,140.137,12.695,120.605,2.441
91.797,99.121,-340.82,71.289,-9.277
72.754,76.66,-341.797,45.898,8.789
69.336,66.895,396.484,46.387,80.566
54.688,55.176,629.395,34.668,58.594
31.738,45.41,187.988,20.996,11.23
27.344,38.574,-248.047,11.23,25.391
35.645,31.25,-172.363,2.93,70.801
40.039,27.832,370.117,9.277,58.594
30.762,23.926,538.574,10.254,10.742
13.184,24.414,175.781,4.395,-7.324
10.254,25.879,-396.484,7.812,-14.16
13.184,22.461,-333.496,2.441,46.875
18.555,20.02,308.594,0.977,42.48
24.414,18.066,597.656,5.859,23.926
3.906,15.137,311.035,0.488,45.898
-0.488,16.602,-201.172,-4.883,24.902
12.695,16.113,-286.621,0,25.391
15.625,15.625,161.621,2.93,14.648
30.762,26.855,513.184,15.625,11.23
55.176,26.855,368.164,35.645,10.742
24.414,14.16,-23.926,15.137,30.273
-8.789,7.812,-316.406,-17.578,52.734
9.766,5.859,49.805,-12.695,97.168
20.02,5.371,615.234,-1.953,59.082
-1.953,6.836,477.051,-12.207,-7.812
-30.273,0.977,91.797,-24.902,16.113
-35.645,-5.371,-282.227,-31.738,25.879
-37.109,-4.883,-20.508,-32.227,0.977
-41.016,-7.812,702.148,-20.02,-2.441
-53.223,-12.695,664.062,-26.367,41.016
-70.801,-12.695,151.367,-37.109,51.27
-71.289,-13.672,-167.969,-34.18,23.926
-51.27,-15.625,116.211,-29.297,13.672
-40.527,-13.672,617.188,-20.996,-39.551
-56.641,-16.113,494.141,-25.391,-36.133
-70.801,-14.648,54.199,-27.344,-10.742
-75.684,-14.648,-206.055,-27.832,-41.504
-57.617,-20.02,156.25,-25.879,16.113
-43.457,-17.09,762.695,-21.484,22.461
-41.016,-14.648,760.742,-19.043,36.133
-52.734,-13.184,297.363,-15.625,55.176
-52.246,-8.301,-165.527,-6.348,37.109
-21.484,-5.859,-3.418,-0.488,41.016
-7.324,-7.812,692.383,4.883,41.992
-12.207,-6.836,820.801,10.742,31.738
-28.809,-1.465,374.512,7.812,39.551
-32.227,-0.977,-96.68,9.766,43.457
-8.301,1.465,-214.355,13.184,-33.203
25.391,6.348,517.09,16.113,-8.301
20.996,11.719,971.191,17.578,35.645
-7.324,15.625,532.715,16.602,19.043
-6.836,15.137,74.707,15.625,42.48
10.254,14.648,77.637,16.113,-17.09
19.043,13.184,631.836,16.602,-28.809
10.254,13.672,897.949,21.973,51.758
0.488,19.043,469.238,24.902,16.602
2.93,20.996,-17.09,15.625,-7.812
9.766,20.996,43.457,15.137,46.875
25.391,22.461,472.168,21.484,64.941
28.32,23.438,759.277,22.949,76.172
8.301,23.926,546.387,19.043,91.797
-4.395,23.926,32.227,15.625,22.461
-2.441,20.996,-242.188,15.137,-41.992
19.531,21.973,273.438,19.043,22.949
17.09,23.926,923.34,29.297,75.195
-15.625,22.461,616.699,26.367,41.992
-30.273,22.949,29.297,12.695,-30.273
-18.066,26.367,-83.496,6.348,-7.324
-2.441,24.902,406.25,11.719,56.641
-3.418,22.461,795.41,14.648,68.359
-20.02,24.902,402.832,12.207,30.762
-40.527,20.508,-109.375,8.301,11.719
-31.738,22.461,-239.258,3.906,78.613
-18.555,28.809,90.332,1.953,73.242
-23.438,25.879,753.906,5.859,63.477
-32.715,22.461,625,10.742,82.031
-48.828,20.996,68.359,10.254,36.621
-40.039,23.438,-225.098,5.371,-44.922
-15.137,20.996,138.184,6.348,-23.926
-4.395,18.066,661.621,13.184,11.23
-19.043,23.926,547.363,15.625,6.348
-40.039,27.344,88.867,9.766,15.137
-32.227,24.414,-369.141,12.695,-5.859
-12.695,25.879,-210.938,16.113,-2.93
1.953,27.344,534.18,16.113,3.906
-10.742,25.879,684.082,17.09,23.438
-33.691,28.32,214.355,18.066,53.711
-23.438,27.344,-217.773,18.066,42.969
-1.953,28.32,-27.344,19.043,8.789
13.672,27.832,418.457,22.461,-69.336
2.93,25.879,458.496,25.879,-49.805
-13.184,24.414,174.805,22.461,9.766
-1.953,26.855,-222.656,20.996,13.672
0.488,25.879,-62.5,28.809,47.363
-0.977,20.02,409.18,26.367,38.574
17.578,23.926,435.059,27.832,-20.508
2.93,27.832,103.516,20.996,-5.371
-12.695,26.855,-205.078,9.766,11.719
2.441,25.879,-103.516,13.672,9.766
22.461,22.461,455.566,19.531,14.648
22.461,20.508,686.523,21.484,20.02
-0.977,19.043,294.922,20.02,39.062
-5.859,21.973,-166.992,17.578,45.898
-0.977,23.438,-190.918,15.137,45.898
15.137,23.438,246.582,20.508,9.766
24.902,25.879,521.484,19.043,-17.578
2.93,25.391,193.359,16.602,-20.02
-4.883,23.438,-304.688,14.16,-23.926
10.742,25.391,-242.676,9.766,12.695
11.719,24.414,386.23,16.113,45.898
23.926,26.855,774.414,19.531,63.965
16.113,31.25,437.012,9.277,62.012
4.883,28.809,-41.504,4.395,32.715
12.695,29.297,-307.129,9.277,25.879
22.949,28.809,-74.707,15.625,25.879
36.621,28.809,594.238,21.973,15.137
31.738,28.809,522.461,20.02,-19.531
17.09,27.832,16.113,17.09,-31.25
12.207,24.902,-257.324,14.648,38.086
28.32,24.902,21.973,20.996,46.875
35.156,26.855,684.082,25.879,5.371
28.809,30.273,688.477,19.531,77.148
11.719,32.715,150.879,16.113,82.52
11.23,31.25,-184.082,19.531,32.715
37.109,32.227,137.695,19.531,14.648
46.387,32.715,683.105,19.043,49.316
37.109,34.668,583.984,19.043,64.453
19.531,35.156,34.668,15.137,-3.418
23.438,35.645,-243.652,20.508,31.738
38.574,35.156,62.5,21.484,37.109
33.691,32.227,470.215,17.578,-9.766
19.531,32.715,465.82,15.625,10.254
13.672,33.203,155.273,15.137,28.32
10.254,31.738,-235.84,16.602,12.695
-1.953,28.32,-222.168,16.113,-34.668
1.953,29.297,480.957,21.484,-8.301
-2.93,32.715,819.824,27.832,82.031
-19.531,32.715,313.477,20.996,77.148
-17.09,34.668,-140.625,17.09,35.645
-1.465,32.227,1.953,20.996,29.297
12.207,33.691,530.762,20.996,-5.371
6.836,34.18,681.152,20.02,38.574
-13.672,29.297,149.902,22.461,61.035
-16.602,28.809,-287.598,17.578,21.973
-0.977,30.762,-256.348,16.113,9.277
20.02,31.25,334.473,22.461,29.297
10.742,30.273,839.355,19.531,70.312
-9.277,26.367,362.793,19.531,48.828
-9.277,23.926,-247.559,22.461,12.207
8.301,29.785,-161.133,21.484,-21.484
15.625,30.273,497.07,22.949,41.504
18.555,27.344,758.789,24.414,79.102
17.09,31.25,326.172,22.461,29.297
-7.324,31.738,-104.004,20.02,37.109
8.301,29.785,-367.676,21.484,-1.953
34.668,30.762,21.484,22.461,-49.805
32.715,27.832,676.27,25.391,17.578
17.578,23.926,390.137,29.297,14.648
4.883,23.926,-153.809,24.414,-48.34
15.625,27.832,-266.113,20.996,-19.531
37.598,28.32,170.41,23.926,-18.066
46.387,27.832,609.375,26.855,-1.953
31.738,31.25,346.68,27.344,36.621
16.113,34.668,-144.531,22.461,14.16
26.855,33.691,-296.387,22.949,4.883
44.922,30.273,144.531,22.461,55.176
40.039,32.227,516.113,18.555,63.965
16.113,31.25,219.238,13.672,-30.762
5.371,25.879,-63.965,10.742,34.18
9.277,31.738,-279.785,13.184,70.312
14.16,36.621,-173.34,8.301,24.902
33.691,35.645,455.078,10.742,29.785
28.32,31.738,487.305,14.648,13.184
10.742,28.809,-44.434,10.254,-8.301
7.812,32.227,-336.426,14.16,12.207
22.461,30.762,-53.223,18.555,15.625
32.227,29.785,426.27,23.926,10.742
14.648,31.738,391.113,20.02,19.043
2.441,26.855,-102.051,16.113,18.066
4.883,25.391,-444.336,17.09,14.16
26.855,27.832,-270.02,15.137,45.898
56.152,25.391,395.508,21.484,104.98
47.363,27.832,617.676,21.973,64.941
24.902,29.785,108.398,16.113,36.133
27.832,27.344,-272.949,17.578,48.34
24.902,29.297,-145.996,19.043,41.016
35.156,29.297,419.434,16.113,88.867
49.805,29.785,504.395,20.02,48.828
26.855,31.25,64.453,18.555,45.41
14.16,31.738,-319.336,15.625,56.641
33.203,34.18,-324.219,17.578,-0.977
39.551,31.25,142.09,20.508,-11.719
28.809,27.344,434.082,20.996,-42.969
12.695,28.809,156.25,15.625,4.395
8.301,29.785,-230.469,15.625,14.16
24.414,31.25,-375.977,13.184,-6.836
40.527,35.645,71.777,9.766,7.324
44.922,35.156,601.074,15.137,26.367
29.785,33.691,257.812,19.531,18.555
28.809,35.156,-212.891,19.043,23.438
41.504,33.203,-239.258,18.066,37.109
44.922,30.273,187.012,20.508,-4.883
50.781,32.227,452.148,22.461,7.324
25.879,27.832,135.742,17.578,55.176
8.789,25.391,-204.59,18.066,21.484
29.785,31.738,-361.816,20.02,-5.859
49.316,30.762,-59.082,23.438,32.715
60.059,31.738,555.664,21.484,57.129
46.387,29.297,374.023,15.625,18.555
30.273,26.855,-173.34,14.16,-8.789
39.062,31.738,-341.797,13.184,4.883
49.805,33.203,66.406,16.602,27.344
44.434,31.738,562.988,18.066,66.406
22.461,30.273,328.613,18.066,37.109
9.766,34.18,-290.039,8.301,-14.648
24.414,33.691,-529.785,4.395,-1.465
49.805,32.227,-142.578,13.672,-17.09
56.641,31.25,501.465,16.602,11.719
47.363,31.25,434.57,17.578,21.484
29.297,34.668,-65.918,18.066,40.039
31.738,32.715,-411.133,15.137,41.016
48.34,31.25,-158.203,17.578,2.441
53.223,33.203,494.141,19.531,55.176
43.945,31.25,477.051,21.484,87.891
20.02,27.344,-61.523,12.207,58.105
24.414,29.297,-398.438,5.371,0.488
40.527,32.715,-292.48,6.348,-21.484
40.527,32.227,223.633,7.812,13.672
40.527,33.203,465.332,17.578,36.621
32.715,32.715,81.543,20.996,72.754
20.508,30.273,-302.734,23.438,18.066
32.715,29.297,-307.617,23.438,10.742
53.711,30.762,209.473,24.902,38.574
45.898,32.227,567.871,25.879,53.223
30.762,35.156,52.734,24.414,43.457
35.645,35.156,-368.164,21.484,13.184
44.922,29.297,-156.738,13.184,39.062
50.293,30.762,339.355,19.531,40.527
43.945,33.691,441.895,26.855,47.852
24.414,28.32,-58.105,19.043,12.207
22.461,27.344,-305.664,13.672,-10.254
30.762,30.762,-336.426,16.113,-39.062
45.41,32.227,35.156,21.484,-20.996
42.969,32.227,601.074,25.391,59.082
12.207,31.25,265.137,18.066,25.391
-2.441,31.738,-254.883,10.254,-36.621
-7.324,31.738,-281.738,6.836,-26.855
6.348,30.273,249.023,12.207,52.246
3.418,28.809,634.766,15.625,124.023
-14.16,27.832,186.523,13.672,62.5
-23.926,27.344,-339.844,7.812,62.988
-22.949,25.879,-427.246,1.953,70.312
-12.695,29.297,80.566,9.277,41.016
-12.695,29.297,564.453,15.625,33.203
-22.461,25.391,324.219,16.602,55.664
-24.902,28.32,-141.113,19.531,54.688
-14.16,33.203,-367.676,20.02,24.414
0,32.715,-11.719,27.832,27.344
8.301,30.273,496.582,27.344,9.766
-8.301,30.762,321.777,16.113,0.977
-32.227,29.785,-163.574,14.16,-10.742
-23.438,26.855,-368.164,13.184,-20.996
-3.418,26.855,-86.914,18.555,0.977
3.906,30.762,348.633,18.555,-5.859
-4.883,34.18,241.211,14.648,-46.875
-7.324,34.18,-80.566,16.602,-18.555
3.418,33.203,-200.684,18.066,38.086
16.113,31.25,-0.488,19.531,10.254
25.391,28.32,481.934,23.438,-36.621
8.301,29.297,501.465,24.414,-18.555
-4.883,26.367,42.48,23.926,26.855
1.465,24.902,-254.883,27.832,0.977
14.16,27.344,-147.949,25.879,16.602
24.414,28.809,374.023,26.367,41.992
15.625,28.32,469.238,22.949,3.418
8.301,34.668,-25.391,20.996,13.672
9.766,35.645,-287.598,23.926,43.457
6.348,26.855,-80.566,11.23,49.316
13.672,20.508,380.859,6.348,3.418
0.977,16.113,519.043,7.812,-19.043
-12.207,18.555,170.898,9.766,40.527
-6.348,23.438,-151.855,7.812,69.336
0.488,27.344,-50.293,6.836,41.504
15.625,27.832,399.902,11.23,7.812
21.484,29.785,712.402,13.184,29.785
7.812,33.203,370.117,14.648,58.594
5.371,34.18,-109.863,6.348,83.008
22.461,32.715,-177.734,6.836,41.504
37.109,33.203,69.336,10.254,26.855
39.551,36.133,472.656,11.23,100.586
25.879,36.133,466.797,11.23,88.379
10.742,34.668,96.68,3.906,36.621
18.066,33.691,-41.504,7.324,30.273
47.852,35.156,382.324,12.207,63.965
50.293,37.109,783.203,19.043,50.781
22.949,36.621,415.039,26.367,15.137
16.602,38.574,-48.828,18.555,17.578
28.809,33.691,-84.473,14.648,70.801
49.805,28.809,255.371,16.602,84.961
56.152,29.785,552.246,21.484,21.484
39.062,28.32,409.18,20.996,19.043
33.203,28.32,50.293,15.137,45.898
41.016,29.785,-93.262,17.09,41.992
37.109,27.832,49.805,21.484,-3.418
41.504,29.297,568.359,24.414,2.441
27.832,30.762,580.078,20.996,-15.137
11.719,32.715,63.965,20.02,-18.066
28.32,33.691,-141.113,19.043,0.488
49.805,30.273,257.812,27.832,22.461
50.293,29.785,729.492,31.25,1.953
41.504,34.18,482.422,23.926,-25.391
40.527,32.227,-26.367,19.043,6.836
35.645,30.273,-157.715,20.508,-18.555
41.992,31.25,244.629,23.926,3.418
51.27,35.156,792.48,23.926,58.594
45.41,31.25,712.402,21.484,13.672
31.738,29.785,198.242,21.484,9.766
24.414,31.25,23.438,22.949,70.312
46.387,28.809,94.238,22.461,80.566
63.477,31.738,464.355,24.902,7.812
58.594,31.738,737.305,23.926,8.301
44.434,31.738,216.797,18.066,36.621
50.293,37.109,-160.156,17.578,-6.348
71.289,35.156,9.766,16.602,47.852
86.914,30.273,451.66,18.066,35.156
76.172,29.297,762.695,21.484,-10.254
42.969,30.273,391.113,21.973,25.391
49.316,30.273,-1.465,21.484,16.602
67.383,35.156,52.246,21.484,-42.48
70.312,37.109,497.07,24.902,-66.406
62.988,33.203,726.074,21.484,-8.301
38.574,32.227,279.297,19.531,-21.484
37.109,32.227,-138.672,20.508,-65.43
57.129,35.156,-27.832,20.996,-1.953
68.359,32.715,356.445,26.855,14.648
69.336,23.438,526.855,26.855,-9.766
58.594,27.344,232.422,23.926,24.902
40.527,34.18,-111.816,23.926,-30.762
51.27,32.715,-150.391,34.18,-77.148
72.266,30.273,326.172,37.109,16.602
61.523,29.785,692.383,24.902,18.066
39.062,33.203,362.793,14.16,31.25
30.762,33.691,-102.051,12.695,26.855
33.691,33.691,-189.453,9.766,28.809
45.898,33.203,90.332,10.742,41.992
50.293,30.762,503.906,10.254,-11.719
42.969,33.691,316.895,7.812,20.508
28.809,34.18,-205.566,6.836,35.156
38.574,36.133,-215.82,10.254,0.488
66.895,38.086,58.105,10.742,38.574
71.289,38.574,443.848,7.812,45.41
64.453,41.992,405.762,13.672,-37.598
44.434,41.992,-30.273,15.137,-19.043
40.039,37.109,-149.902,8.301,54.688
61.523,34.668,137.207,19.531,52.734
73.242,35.645,564.453,29.297,63.477
55.664,41.992,436.035,22.949,67.383
35.645,39.062,-142.09,20.02,11.23
51.758,38.574,-368.164,21.484,41.992
78.613,41.504,-168.945,29.297,120.605
72.266,37.598,288.574,37.109,75.195
54.688,36.621,455.566,29.297,2.93
48.34,36.621,22.949,23.438,55.176
51.758,35.645,-187.988,26.855,120.117
71.289,32.715,-11.719,28.32,110.84
83.008,34.668,355.957,37.598,71.289
66.406,34.18,395.508,39.551,2.93
48.34,30.273,-70.801,25.391,-14.648
48.34,31.738,-345.215,17.578,12.695
49.316,30.762,-190.43,18.066,-28.809
49.316,23.926,189.941,19.043,-43.457
45.898,23.438,312.012,21.973,-1.953
34.668,32.227,-24.414,15.625,9.766
30.762,31.25,-265.137,9.766,6.836
45.898,27.832,-215.82,7.324,41.016
62.012,31.738,107.422,9.766,56.152
52.246,35.645,438.477,11.719,25.879
30.273,37.598,97.656,5.371,14.648
20.508,35.645,-296.387,6.836,45.898
35.645,32.715,-258.789,13.672,61.523
54.199,32.227,204.59,19.043,41.016
57.129,33.203,481.445,21.484,37.598
39.062,33.691,-32.227,19.043,38.574
33.203,32.715,-458.008,14.648,15.137
53.711,32.227,-337.891,21.484,13.672
65.43,27.832,-48.34,27.344,35.645
59.082,25.879,362.793,29.297,35.645
41.992,29.297,261.719,27.832,90.332
32.227,27.344,-216.309,24.902,105.957
45.898,26.855,-351.562,20.02,9.766
49.316,26.855,87.891,17.578,32.715
46.387,22.461,439.941,17.09,6.836
41.016,24.902,221.191,14.648,48.828
28.32,26.855,-284.668,11.23,98.145
37.109,23.438,-480.957,9.277,29.785
51.758,22.461,-226.562,10.742,-17.09
50.293,21.484,316.406,18.066,27.832
34.668,20.996,360.352,17.578,20.508
19.531,22.461,-184.082,13.672,-23.438
27.344,22.949,-311.035,20.508,-15.137
47.852,24.414,20.508,20.996,-29.785
53.711,24.902,457.52,22.461,-4.883
30.762,26.367,346.68,25.879,32.227
20.508,25.391,-173.828,22.949,38.574
23.926,25.391,-359.863,16.113,32.227
29.297,26.855,-57.617,16.602,32.227
35.156,25.879,319.824,20.996,94.238
25.391,26.367,212.891,21.484,81.055
6.348,31.738,-300.781,16.113,-5.859
-3.418,34.668,-380.859,11.23,17.578
16.602,30.762,-230.957,15.137,16.602
30.273,29.785,76.172,19.043,13.672
7.324,33.203,361.328,18.555,40.527
-16.602,34.18,-54.688,17.578,65.43
-10.742,28.809,-423.34,16.602,36.621
2.441,26.367,-269.043,23.926,14.16
12.207,29.297,202.148,25.879,41.016
-0.488,22.461,254.395,18.555,2.441
-13.672,23.926,-330.566,14.648,-29.785
-10.254,29.297,-650.391,13.672,2.441
-4.883,30.273,-507.324,17.09,-16.602
4.883,34.18,-32.715,20.02,31.738
-1.465,33.203,250.977,22.949,28.32
-23.926,32.715,-128.906,21.484,-5.859
-24.414,25.879,-400.391,18.555,20.02
2.93,21.973,-313.477,20.996,14.16
21.484,24.902,104.004,20.02,10.742
14.648,24.902,364.258,15.625,24.414
-0.977,25.879,2.93,9.766,61.523
-4.883,24.414,-439.941,5.859,43.457
9.766,21.484,-494.141,9.766,17.578
21.973,19.531,-99.121,14.16,28.32
14.16,18.066,317.871,13.184,18.555
-7.812,19.531,76.66,9.766,15.137
-9.766,20.996,-382.812,13.672,1.953
7.324,20.996,-331.055,20.508,28.809
19.531,21.484,-45.898,22.949,66.406
21.973,22.461,279.785,25.391,56.152
4.395,21.973,186.035,22.461,7.324
3.906,19.531,-235.352,21.973,17.09
11.719,19.531,-235.84,26.367,87.402
16.113,22.949,96.68,28.32,49.805
24.414,24.902,332.031,30.273,-20.02
15.137,22.461,169.434,24.902,16.602
7.812,25.879,-184.082,17.578,49.805
7.812,28.32,-192.871,19.043,52.246
15.625,25.879,-21.484,17.578,70.312
18.555,23.438,253.418,18.066,22.949
7.812,23.926,417.48,17.578,24.414
2.441,26.855,-52.246,8.789,26.367
3.418,26.367,-244.629,9.277,10.742
20.996,22.949,25.391,15.137,2.93
38.086,23.438,414.551,22.461,-22.949
24.414,28.32,425.781,24.902,-12.695
8.301,27.832,-145.02,23.438,7.812
13.184,24.902,-393.066,20.02,-27.344
28.809,24.902,-85.449,24.902,4.883
47.852,27.832,333.496,29.297,59.57
39.062,26.367,531.738,23.926,37.598
18.555,26.855,128.906,19.043,36.133
21.484,24.414,-211.426,20.02,0.977
40.527,23.438,-44.434,22.949,-37.598
54.199,30.273,440.43,25.879,-1.953
42.48,30.762,560.547,22.461,21.973
21.484,30.273,99.609,17.578,47.852
14.648,28.32,-200.684,14.648,67.871
33.203,28.32,-173.828,16.602,35.645
54.688,29.785,108.398,26.855,27.832
54.688,28.32,484.375,26.855,44.434
36.621,28.809,202.637,22.461,20.508
25.879,30.762,-185.059,24.414,32.715
58.105,36.621,-124.023,44.434,8.301
72.266,32.715,254.883,52.734,8.789
25.879,23.926,512.695,20.508,21.973
2.93,24.902,184.082,10.742,35.645
7.812,22.949,-193.359,24.902,79.59
22.949,19.531,-161.133,28.809,60.547
46.875,17.578,237.793,43.945,41.992
54.199,17.09,415.527,57.129,43.945
45.898,24.414,90.82,56.152,46.875
30.273,27.344,-286.133,48.34,35.645
46.387,24.414,-241.211,49.805,-10.742
61.035,22.461,20.996,46.387,-26.855
54.688,25.391,310.059,49.316,-38.086
40.527,23.438,285.156,59.57,-62.5
31.738,19.043,-90.332,50.781,40.527
48.34,19.043,-152.832,50.781,42.48
63.477,16.113,136.23,48.828,-29.297
54.199,17.09,500.488,47.852,-4.395
39.551,21.973,325.684,47.363,14.648
20.02,24.414,-312.012,41.504,-31.25
27.344,23.438,-405.762,42.48,-23.438
58.594,27.344,109.863,40.039,46.387
67.871,26.367,485.84,38.086,14.648
50.781,21.484,353.027,35.645,-19.043
28.32,22.461,-205.078,35.645,12.695
30.762,24.414,-238.77,35.645,63.477
49.316,26.367,-6.348,40.527,56.641
66.406,28.809,260.254,48.828,47.852
56.641,27.832,391.113,45.41,32.227
35.156,26.367,-85.449,40.039,5.371
37.109,28.809,-275.391,40.039,17.09
62.012,29.785,-168.457,42.48,7.812
69.336,29.785,147.949,45.898,38.086
57.129,28.809,375,51.27,25.879
29.785,30.273,-30.273,45.41,-0.977
20.02,33.203,-310.059,38.086,8.301
41.504,30.273,-94.727,41.504,28.32
54.688,28.32,354.492,42.969,67.383
44.434,27.344,348.145,40.527,26.855
22.461,25.391,-135.254,35.156,0
25.391,26.855,-353.516,29.297,12.207
42.969,27.832,-176.27,27.832,40.527
44.434,24.414,237.793,36.621,34.18
37.598,25.879,326.172,38.574,36.133
32.227,34.18,-144.043,30.762,51.758
19.043,33.691,-407.227,27.344,-7.812
35.156,32.715,-209.961,26.855,-32.715
59.082,33.691,69.336,23.926,20.996
45.41,30.762,361.328,24.414,53.223
22.949,28.809,136.23,22.461,31.25
24.414,26.855,-321.777,24.414,8.301
37.598,23.926,-250,23.438,8.789
54.688,22.461,58.105,24.414,-10.254
55.176,20.508,347.656,28.32,52.246
26.367,23.438,116.699,25.879,68.848
15.137,28.32,-424.805,28.32,27.832
22.949,31.738,-422.363,31.25,9.766
50.293,33.203,-102.539,31.738,33.203
51.758,32.715,245.605,37.109,44.434
31.25,35.645,212.402,38.086,-9.766
41.016,32.715,-193.359,31.738,45.41
41.992,28.809,-250,33.691,54.199
39.551,31.738,62.012,41.016,12.695
41.992,29.297,397.461,42.48,34.668
40.527,25.879,219.238,38.574,57.129
44.922,32.715,-274.902,34.668,48.828
41.992,32.227,-337.402,27.832,74.707
61.035,32.715,-131.836,32.227,57.129
71.289,35.645,155.273,38.086,52.246
47.363,33.203,187.012,32.715,52.246
29.785,32.227,-224.121,29.785,51.758
40.527,30.273,-377.93,31.25,23.438
61.523,30.273,-215.332,37.109,0.488
58.594,34.668,105.469,32.227,18.066
29.297,37.598,223.145,21.973,21.973
9.277,39.062,-214.844,17.09,42.969
29.297,38.574,-425.781,19.043,54.199
36.621,37.598,-198.242,26.855,40.527
34.668,38.574,188.477,26.367,42.48
41.504,38.574,121.094,22.949,47.363
28.32,40.039,-387.207,18.555,39.551
22.949,37.598,-585.449,17.09,5.371
36.133,38.086,-389.648,19.043,-6.348
36.621,36.621,73.73,17.578,-5.859
31.738,34.668,262.207,21.484,-4.883
16.602,39.062,-173.828,20.508,16.113
5.371,37.598,-477.539,12.695,25.879
18.066,36.621,-319.336,6.348,37.109
25.391,37.598,-70.801,7.812,40.527
15.625,34.18,166.504,9.766,59.082
7.812,32.715,-107.91,7.324,55.176
-3.906,33.203,-578.613,1.465,53.223
-20.02,31.738,-481.445,-1.465,34.18
-14.16,32.715,-161.133,1.953,39.062
-9.277,30.762,132.812,3.906,80.078
-26.367,31.738,-13.184,-0.488,73.242
-35.645,35.156,-551.27,-0.977,13.672
-26.855,34.18,-472.168,3.418,4.883
-31.738,29.297,-3.418,4.395,42.969
-39.551,26.367,142.578,8.301,-21.973
-43.945,28.809,-162.109,6.836,-0.977
-49.805,28.809,-581.543,3.418,32.715
-41.992,26.367,-583.984,8.301,-28.32
-27.344,26.855,-306.641,16.113,-13.672
-20.996,28.32,-78.613,16.113,-11.719
-34.668,27.832,-157.715,14.16,28.809
-50.293,27.344,-594.238,17.578,44.434
-27.344,28.32,-655.273,20.02,7.812
-12.695,28.32,-361.816,20.996,-8.301
-14.648,26.855,-68.359,22.949,34.668
-24.414,22.949,-220.215,26.367,47.363
-39.551,23.438,-775.879,20.996,-13.184
-30.762,24.902,-778.32,20.02,0.977
-14.16,24.414,-419.434,28.32,41.016
-10.254,25.391,-131.836,30.273,35.645
-20.508,21.973,-333.496,26.855,-2.441
-29.297,27.344,-869.141,16.113,-15.625
-17.09,32.715,-785.156,8.789,43.457
-13.672,33.203,-487.793,15.137,37.598
-24.414,36.133,-209.961,22.949,8.789
-41.016,36.621,-200.195,18.555,4.395
-52.734,33.203,-662.598,12.207,21.484
-40.039,32.227,-852.539,14.16,13.672
-21.484,34.18,-661.621,14.648,-3.418
-20.02,30.762,-305.176,20.02,30.762
-27.344,25.391,-292.48,23.926,20.996
-41.016,24.902,-726.562,20.508,-2.93
-51.758,24.902,-975.098,23.438,-28.32
-33.691,28.32,-831.055,25.879,-29.297
-14.16,30.273,-388.672,28.32,33.691
-28.809,27.344,-233.398,25.879,87.402
-42.48,27.344,-658.203,23.926,97.168
-36.133,29.297,-998.047,18.555,30.273
-18.555,30.273,-779.785,20.02,16.113
-0.488,26.855,-540.527,19.043,53.223
-5.859,23.926,-519.043,14.16,-25.391
-19.043,23.438,-550.293,11.719,-4.883
-22.461,24.414,-810.547,8.301,19.043
0,24.414,-724.609,17.09,3.418
15.137,24.414,-440.43,21.973,4.883
8.301,24.414,-374.512,20.508,-3.418
-3.906,27.832,-630.859,16.602,-12.207
-6.836,30.762,-928.711,14.648,18.066
14.16,28.809,-799.316,18.555,17.578
35.645,29.785,-636.23,20.508,2.441
24.414,30.273,-471.191,26.367,31.25
7.324,27.832,-490.234,25.879,17.09
-4.395,26.855,-876.465,18.066,5.371
5.371,29.297,-854.98,15.137,-1.953
27.344,30.762,-496.094,20.02,-20.02
31.25,30.762,-215.332,26.855,-0.977
19.043,30.762,-519.531,23.926,19.043
17.09,29.785,-968.262,17.09,20.508
27.832,28.809,-840.332,11.719,-6.348
26.855,27.344,-558.105,10.254,29.785
24.902,28.32,-361.816,11.719,48.828
26.367,31.25,-320.801,15.137,18.066
23.926,33.203,-670.898,18.555,44.434
25.879,34.18,-740.723,17.578,68.848
41.504,35.156,-476.562,17.578,17.578
51.758,33.203,-178.711,18.555,-5.859
49.316,33.691,-278.32,16.602,-15.625
19.531,32.227,-749.023,10.742,-16.113
7.324,28.32,-907.715,20.508,21.973
30.273,29.297,-689.941,35.156,10.742
41.016,33.203,-395.508,33.203,-0.488
33.691,35.156,-184.082,29.785,72.754
37.109,31.738,-446.777,31.25,126.465
35.156,29.785,-813.965,33.203,28.809
39.062,31.25,-578.613,37.109,31.738
50.293,34.668,-129.395,40.039,70.801
31.738,33.203,-124.512,38.086,52.734
24.902,33.203,-538.574,38.574,114.258
35.645,31.738,-820.312,38.574,89.844
51.27,32.715,-651.367,38.574,27.832
47.852,31.738,-329.102,43.457,64.941
37.109,27.832,-318.359,38.574,66.895
36.133,33.691,-643.555,31.25,34.668
31.738,33.691,-857.422,35.156,22.949
38.086,32.715,-645.996,38.574,-10.742
56.641,35.156,-429.199,36.621,42.48
51.27,35.156,-308.594,36.621,59.57
29.785,32.227,-427.246,33.691,45.41
27.344,27.344,-852.539,24.902,18.066
50.293,25.879,-673.34,26.855,0.977
55.176,27.832,-217.773,24.902,-19.531
40.039,30.762,-64.453,20.508,-35.156
32.715,31.25,-424.316,23.926,11.719
29.297,34.18,-798.828,23.926,19.531
31.25,33.691,-479.98,22.949,6.836
42.969,31.738,-179.688,19.043,12.207
41.016,31.738,-71.777,17.09,12.207
16.602,32.715,-84.961,18.066,0.977
26.855,37.598,-431.152,17.09,-14.648
39.551,34.18,-324.219,18.066,22.949
46.387,29.297,79.102,21.973,41.504
49.316,35.645,304.199,27.832,20.996
37.109,35.645,31.25,27.344,13.672
36.621,32.227,-390.137,25.391,7.812
49.316,39.551,-351.562,28.32,43.457
49.805,40.527,-2.93,29.785,43.945
36.621,33.691,397.949,26.855,37.598
28.809,33.203,283.691,26.855,26.367
17.09,29.785,-199.219,25.879,-0.488
28.809,31.738,-209.473,23.926,1.953
53.711,38.574,48.828,26.855,-3.906
47.363,39.551,169.434,27.344,-3.906
25.879,42.969,237.793,27.832,17.578
13.672,43.945,-105.957,25.391,-21.973
18.555,43.457,-222.168,19.043,-16.113
30.762,44.922,110.84,23.926,52.734
34.18,46.875,332.52,24.902,53.223
22.949,45.41,199.219,20.996,22.949
20.02,44.434,-213.379,17.578,10.254
34.668,43.457,-246.582,16.113,31.25
49.316,42.969,65.43,24.414,56.152
50.781,48.34,129.883,28.809,12.695
47.363,51.27,157.227,27.832,32.227
25.879,47.363,-49.316,26.855,38.086
19.043,46.387,-277.344,24.902,-6.836
43.945,43.457,-23.438,28.32,27.832
53.711,40.527,305.176,34.18,37.109
59.082,41.992,345.215,32.227,26.367
57.617,41.992,-147.949,29.297,37.598
44.434,37.598,-411.133,29.297,97.656
49.316,37.109,-74.219,27.344,38.086
66.406,41.016,121.582,33.203,18.066
60.059,44.922,217.773,33.203,85.938
38.574,41.992,88.379,23.438,45.41
38.574,37.598,-223.145,25.879,45.898
60.547,36.621,-73.242,34.18,40.527
66.895,39.062,293.457,37.109,24.902
61.523,40.039,429.199,35.156,23.438
46.387,41.016,100.098,31.738,2.441
47.852,41.504,-239.746,36.621,39.062
59.082,38.086,-165.039,40.039,25.879
62.5,35.645,117.676,39.551,45.898
53.223,37.109,269.043,41.504,27.832
33.691,36.621,215.332,40.527,-13.184
37.109,35.645,-52.734,38.086,42.969
48.828,36.621,-22.949,46.387,28.32
57.617,38.574,326.172,56.641,34.668
42.969,36.133,581.543,56.641,59.082
22.949,36.621,343.75,54.199,34.668
19.043,37.598,-42.969,50.781,88.379
24.414,32.715,-39.551,51.758,75.684
30.762,30.762,247.559,54.199,15.137
26.855,33.203,395.508,53.711,-10.742
16.113,37.109,190.918,49.805,-27.344
3.418,35.645,-85.938,46.387,12.207
-0.977,33.691,2.93,48.34,37.109
21.973,37.109,283.203,53.223,30.273
13.184,32.715,387.207,49.805,50.293
-10.742,29.297,357.91,50.781,12.695
-11.719,33.691,65.43,49.316,-11.719
0,33.691,-84.473,41.504,18.555
20.02,33.203,221.191,44.434,32.715
18.555,33.691,566.895,52.734,25.879
5.371,30.762,465.82,54.688,-14.16
-4.883,29.785,-100.586,50.781,-21.484
-3.906,32.227,-239.746,47.852,49.805
16.602,34.18,155.762,53.223,17.578
20.508,29.785,451.66,58.594,-52.734
9.766,28.809,458.984,57.617,-45.898
-2.441,34.18,94.238,54.688,-0.488
-7.812,33.203,-142.578,55.176,8.789
10.742,31.25,177.734,54.199,40.527
15.625,30.273,323.73,54.199,22.949
6.836,30.762,279.297,57.129,-40.527
-3.418,30.273,90.82,58.105,-31.25
-0.977,28.32,-259.766,52.734,-21.973
10.254,28.809,16.602,51.27,43.945
20.02,28.32,270.996,54.688,33.691
15.137,31.25,334.473,53.223,19.043
14.648,34.668,249.023,54.688,41.016
22.461,31.738,-69.824,52.734,24.902
27.832,33.203,105.469,53.223,28.32
45.41,33.691,474.121,55.664,40.039
44.922,33.203,603.027,54.688,104.98
31.738,31.25,184.082,54.199,32.715
20.02,29.785,-240.234,49.805,-29.297
33.203,28.809,-36.133,53.711,16.602
58.594,31.25,367.188,61.523,55.176
46.387,32.227,432.617,61.035,67.871
23.438,30.762,78.613,56.641,43.945
36.621,30.762,-316.895,53.223,29.785
50.293,32.227,-74.707,55.664,17.09
53.711,33.691,354.492,60.547,65.918
51.27,36.133,345.703,61.035,53.223
38.574,36.621,288.574,53.223,53.223
28.809,31.738,-29.297,44.434,31.738
43.457,30.273,-113.77,42.48,-75.195
54.199,30.273,265.137,49.316,-35.645
53.711,28.32,552.246,56.641,45.41
47.852,29.785,338.867,56.641,0.977
32.227,28.809,-212.891,48.828,-4.883
43.457,30.762,-226.074,42.969,17.09
69.824,36.621,242.188,48.34,16.602
64.941,37.109,344.727,46.875,18.066
41.992,33.203,221.191,38.086,15.625
39.551,30.762,57.617,35.645,49.805
47.363,30.762,33.691,40.039,46.875
46.387,32.715,343.262,39.551,54.199
49.316,34.18,601.074,43.457,49.316
43.945,29.297,512.695,47.363,37.109
39.062,36.133,93.262,46.875,53.223
55.664,38.574,-111.816,47.363,5.859
73.242,31.25,125.977,53.711,2.441
81.055,31.738,402.344,56.641,51.758
74.219,34.668,463.379,51.27,28.809
52.734,32.227,159.668,48.828,-10.254
49.805,27.344,-34.18,49.805,13.672
64.453,32.227,293.945,59.082,41.992
67.871,35.645,486.328,60.547,24.902
61.523,34.668,488.77,54.199,29.297
47.852,34.668,228.027,51.758,8.301
43.945,36.133,-41.016,53.223,8.301
64.941,38.086,237.305,55.176,43.457
73.242,36.621,607.91,58.594,67.383
67.383,32.715,503.418,62.5,25.391
49.316,31.738,136.719,55.176,41.016
48.828,32.715,-48.34,57.617,36.133
71.289,28.32,160.645,65.43,-34.668
80.078,32.227,557.129,59.082,42.48
63.965,33.691,656.25,54.688,66.406
49.316,28.809,277.832,56.641,-0.488
57.129,31.25,-49.316,55.176,23.926
69.824,33.203,138.672,57.617,50.781
78.125,33.691,338.867,64.453,32.227
74.219,34.18,445.801,64.941,14.648
61.035,35.156,365.723,59.57,1.465
59.57,33.691,-66.406,52.246,5.371
56.152,34.18,24.414,51.758,46.875
60.547,33.203,472.656,53.223,79.102
64.941,33.691,530.273,47.363,77.148
59.082,34.18,363.281,45.41,11.719
56.152,33.203,80.566,48.828,4.395
57.617,32.227,148.438,51.27,72.754
76.66,30.273,416.504,55.176,18.555
80.566,34.18,573.242,52.734,-8.789
59.57,34.668,406.738,46.875,11.23
63.477,35.156,1.953,47.852,49.316
68.848,37.109,-125.488,50.781,8.301
63.477,37.109,148.926,57.617,-32.715
69.336,33.691,322.754,54.688,1.465
58.594,31.25,294.922,49.805,12.207
43.457,33.691,61.523,48.828,2.93
46.387,32.227,-24.414,51.27,8.789
69.824,31.25,344.238,61.523,40.527
79.102,29.785,563.965,61.035,11.719
72.754,32.227,435.059,56.152,-1.465
61.035,34.668,59.082,46.875,67.383
64.941,34.668,-88.379,45.898,71.289
89.355,37.109,209.473,60.059,15.137
85.449,32.715,466.797,60.059,-42.48
66.895,29.785,383.301,56.641,12.695
67.383,34.18,-48.828,60.059,53.223
76.66,30.273,-194.336,62.012,42.48
102.051,29.297,291.016,70.801,28.809
108.887,37.109,441.406,78.613,-6.348
73.73,37.598,297.852,56.152,-3.418
58.105,36.133,223.633,41.016,45.41
70.801,33.203,24.414,48.34,62.988
78.613,31.738,250.488,50.781,49.805
89.355,34.668,564.453,50.781,21.484
81.055,35.645,577.148,41.992,40.527
58.105,37.598,227.539,41.992,64.453
56.641,36.621,-207.52,47.363,55.176
74.219,32.715,49.805,44.922,73.242
88.379,33.203,425.781,52.734,65.918
70.801,37.598,336.426,47.852,30.273
59.57,33.203,145.508,41.504,16.602
68.359,30.762,-61.523,43.945,15.625
80.078,35.156,138.184,49.316,8.789
87.402,31.738,505.371,57.617,42.48
86.914,31.25,565.918,54.688,29.297
73.242,32.715,261.719,49.805,15.625
40.039,34.18,-132.324,42.969,11.23
49.805,33.691,-6.836,45.41,10.742
66.895,33.203,269.531,49.805,31.738
65.43,30.762,326.172,46.387,27.344
63.477,27.344,253.418,49.805,20.02
62.012,26.855,-62.012,51.758,22.949
64.941,28.809,26.367,50.293,74.707
73.242,32.715,355.957,49.316,57.129
72.266,31.738,368.164,53.711,-2.93
44.922,27.832,225.586,52.734,36.133
30.273,27.832,-70.801,50.293,46.387
48.828,30.273,-112.793,49.805,8.789
63.965,30.273,237.793,49.805,-3.418
60.059,29.297,445.312,53.711,3.418
50.293,28.809,197.266,51.27,-6.836
37.598,30.273,-208.008,47.363,13.184
31.738,31.738,-125.488,38.574,60.547
50.293,29.785,293.457,37.598,29.785
41.504,29.297,330.566,41.016,22.461
12.695,31.738,157.715,40.039,24.902
19.531,34.18,12.207,41.016,21.484
20.996,32.227,-91.797,42.48,44.922
16.602,30.762,246.094,47.852,55.664
34.668,28.32,500.488,49.316,43.457
25.879,24.902,375.488,48.34,9.766
1.465,25.879,-34.18,50.781,-41.504
12.695,28.809,-284.668,46.387,3.906
29.785,28.32,123.535,43.945,64.453
30.762,28.32,415.039,49.316,57.129
13.184,28.32,267.578,43.457,36.621
-4.883,25.391,62.5,43.457,-43.457
0.977,26.367,-80.566,43.945,-10.742
21.484,26.855,220.215,40.527,52.734
29.785,26.367,483.887,51.27,-24.414
17.578,27.832,469.238,55.176,-24.902
8.301,29.297,171.387,43.945,48.828
16.602,26.855,-140.625,42.969,34.668
26.855,22.949,26.855,46.875,21.973
33.691,25.391,293.945,46.875,41.016
17.09,23.926,396.973,45.898,65.43
0,24.414,175.781,41.992,34.668
3.906,28.32,-159.18,42.969,22.461
29.785,29.297,36.133,41.016,19.531
51.27,28.32,321.777,38.574,-8.789
41.504,30.762,321.289,45.41,49.316
17.09,27.344,137.695,41.992,24.414
13.184,26.367,-139.648,40.527,14.648
40.039,28.809,6.836,49.316,64.941
53.223,27.832,317.383,50.781,4.883
57.129,31.25,476.074,53.223,49.316
43.457,32.227,142.09,50.781,64.453
25.391,32.715,-314.453,46.387,5.859
39.062,35.645,-105.469,49.805,68.359
56.152,31.738,336.914,53.711,51.758
64.453,27.832,320.312,52.734,30.273
47.363,32.227,105.957,50.781,7.812
33.691,33.691,-130.859,44.922,-13.184
41.504,30.273,-117.676,44.922,-0.977
59.082,31.25,328.125,49.316,0
65.918,31.738,525.391,51.758,18.066
47.363,29.297,272.949,42.969,-41.992
34.18,28.809,-125,36.133,-32.227
44.434,29.785,-254.395,39.551,17.09
62.988,29.785,209.473,43.945,70.312
70.312,29.785,372.559,42.48,55.176
36.133,30.273,186.523,37.598,48.828
21.973,28.32,-21.484,38.086,67.871
46.387,28.32,-228.516,38.574,0.977
65.918,30.762,240.723,38.086,13.672
70.801,28.32,582.031,41.016,50.781
56.152,28.809,401.367,42.48,22.949
35.645,28.809,27.344,26.367,60.059
31.25,29.297,-131.836,22.461,93.262
48.34,32.715,145.996,39.062,47.363
57.617,30.762,350.586,35.645,31.25
59.57,28.809,235.352,29.297,2.441
41.504,30.762,-7.324,32.715,7.324
31.25,28.32,-164.551,36.133,54.199
55.176,24.414,135.742,46.387,65.43
75.195,29.785,350.586,47.363,-6.348
60.059,31.25,313.477,47.852,2.93
52.734,28.809,8.301,50.781,45.41
54.688,33.203,-273.438,44.922,7.324
62.012,33.203,64.453,48.828,14.648
64.453,27.832,420.41,54.199,83.496
58.105,23.438,393.066,53.223,88.867
54.688,27.344,-8.301,42.969,39.062
29.297,30.762,-323.242,41.016,31.738
26.855,29.297,14.16,41.992,29.297
45.41,25.879,388.184,36.133,-6.348
45.898,23.438,170.41,35.156,7.324
30.273,27.344,-97.656,32.227,-8.789
27.832,30.762,-127.441,33.691,-28.32
42.969,28.809,47.363,39.551,9.277
53.223,25.879,452.637,38.574,65.918
43.945,24.414,444.336,34.18,54.688
32.227,23.438,148.438,47.852,55.176
32.227,24.902,-101.562,46.387,91.309
40.039,28.809,-116.211,36.621,76.66
56.641,34.18,203.613,39.551,56.641
58.105,33.203,412.109,38.574,28.809
46.875,29.297,231.934,44.434,-0.977
43.457,29.785,-166.504,40.527,-37.598
30.762,31.738,-137.207,26.855,4.395
31.25,34.18,310.059,29.297,43.945
40.039,32.715,275.391,26.367,-15.137
34.668,30.762,51.758,23.438,-11.719
32.227,30.273,-168.945,20.996,-53.711
40.039,28.32,-218.75,17.578,-51.27
41.992,27.344,252.93,26.367,50.293
48.34,25.879,416.016,26.855,28.809
48.828,27.344,97.168,18.066,11.23
24.902,28.32,-260.254,19.531,7.812
36.133,30.762,-258.789,21.973,0.488
62.988,33.203,204.59,28.809,25.879
57.617,29.297,339.355,31.738,32.227
44.434,27.344,-16.602,26.855,-21.484
29.785,28.809,-141.113,30.762,-3.906
27.344,24.902,-163.086,31.25,45.898
42.48,21.973,95.215,34.668,3.418
59.082,23.926,412.109,35.156,16.113
38.574,23.926,317.871,29.785,21.973
19.531,21.973,-143.066,29.297,7.324
26.855,21.484,-355.469,26.855,55.664
41.504,22.949,-5.859,28.32,15.625
59.57,25.391,344.238,37.109,-2.441
60.547,25.391,390.625,37.598,63.477
45.41,24.902,72.754,32.715,26.367
49.316,25.879,-229.98,31.25,-1.953
72.266,24.414,69.336,32.227,27.832
73.242,24.414,390.625,41.992,27.832
43.945,22.949,366.699,49.805,60.059
31.25,26.855,129.883,41.992,82.031
47.852,31.738,-177.246,30.762,62.988
67.383,30.273,-114.746,28.809,13.672
74.219,26.855,324.219,34.18,55.176
63.477,24.414,200.684,31.738,19.531
43.945,26.855,-110.352,28.32,-21.484
28.809,25.879,-91.309,27.832,12.695
48.828,25.391,80.566,26.855,20.996
64.941,25.391,539.062,26.855,31.738
64.453,23.926,625.977,31.25,28.809
56.641,26.855,315.43,34.18,27.344
42.969,29.785,-63.477,29.297,19.531
62.988,29.297,-3.906,28.32,1.465
71.289,26.367,424.805,33.203,6.836
68.359,28.809,493.164,30.273,-3.906
51.27,25.879,141.602,27.832,-18.555
33.691,27.344,-91.797,20.996,19.043
56.641,33.691,-40.039,16.602,-32.227
65.918,30.762,403.809,21.484,-48.34
67.871,28.809,461.426,20.508,3.418
55.176,30.273,180.664,19.531,46.387
41.992,28.32,-14.648,16.602,31.738
54.199,28.32,-19.043,12.695,4.883
62.5,29.785,458.008,22.461,29.297
54.199,29.297,645.508,30.273,10.742
41.992,27.832,453.613,21.973,34.668
35.645,25.391,-21.973,19.043,37.598
39.551,24.902,-136.23,22.949,87.891
55.664,27.832,368.164,29.785,80.566
69.336,29.297,585.449,30.273,18.066
56.641,32.715,417.48,33.203,49.805
32.715,34.18,64.941,35.645,4.883
35.156,27.832,-139.648,30.762,-11.719
47.852,26.367,233.887,35.645,10.742
49.316,30.762,541.016,32.715,41.504
35.156,31.25,378.418,30.273,62.5
10.742,29.785,-53.711,25.391,-18.066
5.371,29.297,-220.703,19.043,-26.367
26.855,27.832,113.281,20.996,31.738
27.832,23.926,433.105,22.949,63.477
6.348,22.461,153.809,22.461,68.848
-1.953,23.438,-214.355,18.066,22.949
-5.859,24.414,-58.594,20.996,66.895
-6.348,26.855,245.605,29.785,65.918
9.277,29.297,468.75,28.809,8.789
13.184,30.762,414.062,21.973,21.484
-11.23,33.203,76.172,30.273,19.043
-20.996,29.297,-259.277,30.762,-10.254
-7.812,17.578,-8.301,25.879,41.992
-6.836,19.531,389.648,26.855,81.055
-15.137,24.414,296.875,23.438,46.387
-24.902,23.926,-103.516,18.066,22.461
-36.133,22.461,-396.484,16.602,11.719
-29.297,21.973,-123.535,18.555,0.977
-15.625,20.996,382.812,21.484,39.551
-20.508,19.531,474.609,23.926,140.625
-25.879,18.555,108.398,16.113,79.102
-18.066,15.625,-265.137,10.742,7.324
-16.602,17.578,-194.824,14.648,-7.324
-0.977,19.043,295.41,19.531,28.32
14.16,22.461,298.34,14.648,74.707
-8.301,26.855,-12.207,13.672,75.684
-29.785,25.879,-258.789,18.555,75.195
-12.695,21.484,-257.324,17.578,25.391
11.23,20.996,270.02,20.996,6.348
18.555,25.391,326.172,21.973,47.363
5.859,27.832,50.293,17.578,58.594
-4.883,27.344,-94.727,18.555,-1.953
11.719,24.902,-33.691,20.508,28.809
30.273,20.508,324.707,26.855,13.672
25.391,20.996,539.062,26.855,15.625
8.301,28.32,322.754,19.043,37.598
17.578,32.227,-56.152,20.996,20.02
25.879,28.32,-133.301,15.137,31.25
24.902,29.785,125.488,4.883,-23.926
27.832,31.738,286.133,11.719,-43.945
10.742,26.367,167.48,16.602,17.578
4.883,28.809,46.387,18.555,56.152
15.137,28.32,-43.945,21.973,-4.395
31.25,23.926,191.406,22.949,-42.48
36.621,23.926,550.781,20.508,29.785
20.02,26.367,445.312,20.02,8.789
4.395,28.32,101.562,15.137,30.762
13.184,25.879,-82.52,15.137,68.359
41.992,21.973,146.484,22.461,-30.273
36.621,23.438,499.023,25.879,-13.672
9.277,25.391,340.332,28.32,-1.465
13.672,26.367,-84.473,27.344,-47.852
15.137,24.414,-163.086,19.043,13.184
18.066,23.926,255.371,20.508,19.531
27.832,24.902,663.086,24.902,25.391
35.645,28.809,342.773,23.926,-23.926
25.879,26.367,68.848,18.066,-36.621
24.414,24.414,35.645,18.555,5.859
46.387,26.367,202.637,18.555,-10.742
57.129,27.832,702.148,21.973,15.137
47.852,33.203,716.797,22.949,15.625
19.531,31.738,435.547,15.625,70.801
10.254,27.344,79.102,17.09,124.512
36.621,26.855,133.789,20.02,62.012
51.27,23.438,699.707,19.043,42.48
37.109,22.949,831.055,19.043,75.684
25.391,27.344,513.672,19.043,89.355
24.902,31.25,201.172,14.648,60.059
36.621,29.297,279.785,15.625,33.691
52.246,26.855,779.297,18.066,64.941
41.504,24.902,694.336,19.531,27.832
19.043,23.926,332.031,21.484,22.949
24.414,13.672,188.965,31.25,29.785
71.289,8.301,277.832,55.176,-0.488
80.566,27.344,711.426,47.363,30.762
47.363,38.574,748.535,12.207,54.199
38.086,36.133,484.375,3.418,66.895
8.789,31.738,331.055,-3.418,22.461
7.324,27.832,383.789,-10.254,0.977
35.156,36.621,748.047,-6.348,-15.625
20.508,38.086,926.758,-9.277,-8.789
-12.695,30.273,662.598,-26.367,-10.254
-22.461,32.715,275.879,-41.992,-50.293
-3.418,31.738,249.512,-40.039,-22.949
8.789,30.762,700.684,-46.387,25.391
-4.883,43.457,941.895,-64.941,55.664
-13.672,40.527,585.938,-55.664,17.09
-44.434,28.809,186.035,-67.383,11.23
-47.852,37.109,158.691,-85.449,70.801
-18.555,39.062,653.32,-79.59,86.914
-5.859,42.969,928.223,-77.637,47.363
-27.832,45.41,543.945,-83.496,51.758
-57.617,36.621,282.715,-88.379,41.504
-54.688,38.574,221.191,-84.473,-35.645
-29.297,40.039,527.832,-80.566,-38.086
-19.043,41.016,828.613,-80.566,-27.832
-21.973,49.316,697.266,-85.449,-5.371
-19.531,50.781,348.633,-74.219,10.742
-17.578,44.434,7.812,-59.57,-9.277
-8.789,35.156,321.777,-59.57,17.09
10.742,36.621,846.191,-51.27,91.797
7.324,51.758,672.852,-44.434,62.012
-1.465,53.711,284.18,-44.434,3.418
2.441,45.898,130.371,-44.922,47.852
16.113,41.016,244.141,-40.527,-11.23
27.344,39.551,703.613,-33.691,25.391
19.043,45.898,607.422,-24.902,97.656
17.578,40.039,117.188,-26.855,-30.273
20.996,29.785,36.133,-30.273,-71.289
44.922,40.527,291.504,-12.207,12.695
66.406,42.48,589.844,-1.953,34.668
55.664,35.645,574.707,-4.883,19.531
46.387,37.598,388.184,-6.836,78.125
43.457,37.598,104.98,-10.254,102.051
39.551,35.156,130.371,-5.371,32.227
63.965,35.156,496.094,4.395,-1.953
67.383,39.062,426.27,8.301,9.277
32.227,39.551,103.516,5.371,-9.766
31.738,37.598,5.371,3.418,-20.996
58.594,41.016,121.094,6.836,17.09
80.078,39.551,531.738,9.766,36.133
74.219,34.668,626.465,14.648,20.996
46.875,37.598,212.402,18.555,16.602
30.762,37.598,-184.57,16.113,-8.301
41.504,38.086,-43.945,14.16,13.184
65.918,38.086,424.805,13.184,-15.625
62.988,39.062,534.18,10.254,-20.02
37.598,42.48,255.859,7.812,11.23
28.32,37.598,-3.906,7.812,37.598
52.734,38.086,-115.234,5.859,9.277
56.641,35.156,211.914,1.953,-29.785
46.875,30.273,440.43,6.348,-9.766
29.785,33.691,157.227,8.789,34.668
16.113,38.574,-60.059,6.348,67.871
30.762,39.062,-197.266,9.766,54.199
48.34,38.086,116.699,12.207,27.832
58.594,35.645,491.211,12.207,4.395
42.969,34.18,135.742,6.836,19.531
29.785,32.227,-167.969,0,24.414
25.879,30.273,-129.395,-0.488,21.484
40.527,28.32,174.805,0.977,27.832
51.27,32.227,444.336,8.301,13.184
40.527,37.598,264.16,12.695,20.02
23.438,38.086,-76.172,11.23,48.828
17.09,34.668,-346.191,8.301,36.621
28.809,30.762,-102.539,7.324,11.719
42.48,31.738,348.633,12.695,81.543
42.48,34.18,68.359,12.207,92.285
11.23,35.645,-318.359,6.348,40.039
7.812,36.621,-301.27,8.301,30.273
25.391,38.086,-61.035,12.207,26.367
35.645,36.621,297.363,17.09,-2.441
32.715,37.109,277.344,19.043,39.062
9.277,38.086,-87.402,15.137,94.727
-5.371,37.598,-412.109,7.324,61.035
1.465,38.574,-291.016,4.883,5.371
9.277,30.762,164.551,7.324,32.227
1.953,30.273,243.164,5.371,118.164
-19.043,38.574,-264.648,-0.488,81.055
-32.227,39.062,-649.902,-6.348,20.996
-4.883,41.504,-433.594,2.441,72.754
18.555,41.992,128.418,22.949,29.297
-0.488,38.574,134.277,10.742,20.996
-43.945,36.621,-369.141,-12.695,35.645
-55.176,28.809,-468.75,-17.09,22.461
-29.297,26.367,-305.664,-4.395,29.297
-17.09,22.949,35.156,10.742,-33.691
-16.602,20.996,181.152,19.531,13.184
-20.02,22.949,-126.953,25.879,53.711
-24.414,19.531,-499.512,24.902,10.742
-14.16,20.02,-573.73,27.832,-9.277
0,20.996,-179.688,30.273,-4.883
0.488,17.09,75.684,32.715,24.414
-5.859,19.531,-202.637,32.715,25.391
-10.742,24.902,-498.535,27.832,30.273
2.441,26.855,-449.707,25.879,20.996
19.531,28.809,-30.273,32.715,3.906
20.508,27.344,119.141,40.039,-25.391
15.137,26.367,-272.461,39.062,-24.902
2.441,29.297,-489.258,38.574,6.836
10.742,35.645,-432.617,38.574,18.066
36.133,33.691,-87.402,35.156,25.879
32.715,29.785,140.137,38.574,41.992
5.859,27.344,-240.723,34.18,53.711
-7.324,27.344,-505.859,24.902,58.594
10.742,27.344,-445.801,25.391,28.32
32.715,27.832,-127.441,32.715,17.578
32.227,29.785,230.469,37.109,45.898
20.508,29.785,-38.086,37.598,8.301
13.672,33.691,-424.316,34.18,-11.719
8.789,33.203,-518.555,34.668,-7.324
15.137,28.809,-201.66,38.086,28.809
40.527,31.25,214.355,37.598,74.219
28.32,30.273,30.762,37.598,0.488
-7.812,27.344,-437.012,31.25,-1.953
5.371,29.785,-616.211,31.25,63.965
20.02,27.832,-268.555,32.715,43.457
27.344,25.879,232.422,28.32,43.945
22.461,29.785,167.48,23.438,83.008
13.672,29.297,-214.844,19.043,104.004
15.137,26.367,-483.398,30.273,33.203
16.113,28.809,-301.27,27.832,1.953
36.621,30.762,142.578,9.766,42.48
42.48,31.738,96.68,13.672,32.227
23.438,32.715,-233.887,15.137,7.812
25.391,33.203,-445.801,11.23,-9.766
35.645,30.762,-359.863,16.113,-1.465
37.598,27.832,167.969,13.184,81.543
41.992,28.809,232.422,12.207,68.848
47.852,34.18,-338.379,10.742,58.105
40.527,36.133,-445.312,10.254,55.664
53.223,34.18,-51.27,15.625,35.156
63.965,30.762,379.395,18.066,74.707
28.809,30.762,444.824,16.113,54.199
16.113,33.203,84.473,9.766,-3.418
15.137,32.715,-201.66,2.441,5.371
24.902,32.715,-200.684,2.93,11.23
42.969,33.691,188.477,12.207,-11.719
44.922,34.668,395.508,11.23,19.043
21.484,34.668,-15.625,8.301,32.227
6.836,30.273,-179.688,7.812,47.363
20.996,31.25,-7.812,6.836,64.453
51.758,32.715,340.332,15.137,26.855
55.176,32.715,531.738,22.461,3.906
32.227,32.715,242.676,18.555,8.789
30.273,32.227,-80.078,10.742,43.945
47.852,33.203,-149.414,11.23,46.875
59.082,31.738,262.695,20.996,72.266
63.965,29.297,518.555,30.273,40.527
55.664,32.227,230.957,22.949,-7.812
34.668,36.133,-242.676,11.23,-32.227
39.551,35.645,-368.652,13.184,-14.648
60.059,35.645,83.008,18.066,26.367
71.289,36.133,535.645,21.484,11.23
61.035,34.18,405.273,20.02,31.738
40.039,30.762,17.578,19.043,62.012
46.875,31.25,-131.348,13.184,28.32
64.941,33.203,137.695,11.23,-7.324
61.523,35.645,500,19.043,-31.738
42.969,35.645,371.582,14.648,10.742
28.809,36.621,-31.25,6.348,30.273
34.668,32.715,-167.48,4.395,44.922
41.992,29.297,49.805,10.254,64.453
51.27,33.691,377.93,16.113,47.852
58.105,31.738,359.375,13.672,39.551
42.48,31.738,28.32,5.859,41.016
27.344,34.18,-211.914,6.836,12.207
54.688,34.668,34.668,9.277,-29.297
72.266,31.738,546.387,9.766,-25.391
50.781,28.32,437.012,8.789,-0.977
47.852,30.762,-203.613,5.371,5.859
43.945,29.785,-225.586,4.395,8.789
43.457,28.809,192.383,9.277,36.621
65.918,32.715,588.379,11.23,4.883
58.105,32.227,510.254,9.277,33.691
39.062,27.344,25.879,2.93,95.215
32.715,26.367,-130.859,3.418,14.648
45.41,31.25,9.766,4.883,-83.984
59.57,33.691,483.887,5.859,-20.508
51.758,33.203,603.516,6.348,42.969
32.715,35.156,134.766,11.23,28.809
18.066,32.715,-162.598,10.254,18.066
33.691,30.762,-47.852,0,23.438
44.922,33.203,361.816,0.488,15.137
51.27,35.156,529.785,3.418,53.223
40.527,32.227,152.344,3.906,39.551
24.902,27.832,-261.719,7.812,17.578
49.316,33.691,-286.133,9.766,39.551
63.477,38.086,219.238,13.672,48.828
58.105,34.18,612.305,17.09,97.168
47.363,33.203,52.734,9.766,40.039
33.691,34.18,-293.945,4.883,30.273
44.922,33.691,-84.473,9.766,11.719
43.457,34.18,257.812,6.348,-24.414
40.039,33.203,560.059,13.184,0.977
45.898,33.203,264.648,11.23,-23.438
36.621,36.133,-85.449,4.395,-9.277
34.18,30.273,-116.211,8.301,9.277
49.805,27.344,109.375,9.277,-10.254
50.293,33.691,450.684,13.672,-0.488
39.062,37.109,202.148,10.742,1.465
20.996,36.133,-158.691,2.93,14.16
21.484,33.203,4.883,-0.488,39.062
42.48,31.738,322.266,-1.953,34.18
41.016,33.691,655.762,4.883,31.738
35.156,33.203,513.184,5.859,45.898
32.227,33.691,62.012,-0.488,29.785
22.949,34.18,-170.898,0,-54.199
32.715,31.738,142.09,2.441,-22.949
47.852,34.668,590.82,6.348,65.43
35.645,31.25,485.84,8.789,112.305
14.648,26.855,4.395,2.93,47.852
26.367,31.25,-64.453,-2.93,41.504
44.922,32.715,221.68,-4.395,36.133
41.992,31.25,621.094,1.953,-20.508
35.156,31.738,531.25,8.301,15.625
35.156,37.109,15.137,4.883,23.438
33.203,35.645,-16.602,6.836,24.902
38.574,28.32,234.863,12.207,24.902
50.293,28.32,638.184,11.23,11.719
46.875,31.738,691.406,8.789,52.734
27.344,29.785,308.105,0.488,87.891
13.672,26.855,-65.918,-4.883,59.57
21.484,28.32,-55.176,-1.465,7.324
32.715,27.344,497.559,-0.977,3.418
21.484,30.273,738.77,-0.488,61.035
-4.395,28.809,333.496,1.953,67.383
-3.418,27.832,-2.441,-2.441,-18.555
4.395,30.762,94.238,-5.859,-11.719
7.812,28.32,553.223,0.488,36.621
7.812,29.785,721.191,3.418,46.875
-9.277,29.297,116.211,1.953,16.113
-27.344,25.879,-210.938,-5.859,-20.996
-33.691,25.879,85.938,-4.883,1.953
-19.043,29.785,448.73,5.371,82.031
-11.23,27.832,614.746,11.23,56.641
-24.902,27.344,189.941,17.09,20.508
-34.18,32.227,-119.141,8.301,57.617
-34.668,26.855,30.762,1.953,44.434
-23.438,19.043,473.633,5.371,57.129
-22.461,20.996,707.031,11.719,35.156
-30.273,29.785,331.543,7.324,-14.16
-33.203,28.32,-18.555,-7.812,-13.184
-29.297,23.926,-30.762,-11.23,12.207
-10.742,23.438,335.938,-5.371,34.18
-12.207,24.414,681.641,2.441,29.785
-35.156,25.879,283.203,2.441,53.223
-41.992,25.391,-228.027,-3.906,21.484
-37.109,26.855,-66.895,-1.953,13.672
-18.555,21.484,298.34,8.789,30.762
0,18.066,651.367,10.742,35.645
-17.09,19.531,494.141,7.324,83.984
-29.785,21.484,-83.008,7.812,26.855
-23.438,23.438,-229.98,0.488,4.395
-12.695,27.344,158.203,-1.465,43.945
0.488,29.297,520.02,8.301,9.766
-7.324,26.367,411.621,9.277,30.762
-24.902,25.879,-45.898,3.906,18.066
-20.02,26.855,-303.711,7.324,28.32
-13.672,24.902,-81.055,6.348,37.109
-7.812,23.926,496.582,9.277,34.18
-7.324,24.414,445.801,13.672,70.801
-16.602,23.926,-189.941,8.301,63.965
-11.23,25.391,-289.551,7.324,20.02
3.418,29.785,80.566,12.207,48.828
5.859,27.832,507.324,16.113,69.336
2.441,24.902,427.246,16.602,4.883
-5.371,27.344,-48.34,8.301,13.184
-6.836,28.809,-241.699,3.418,26.367
0,25.879,-60.059,9.766,11.719
10.742,25.391,292.969,15.625,18.555
11.23,27.344,353.027,17.578,31.25
-9.766,30.273,43.457,14.648,35.156
-15.137,31.738,-193.359,10.742,3.906
2.441,31.738,-69.824,7.812,11.23
23.438,33.203,346.68,11.719,13.672
28.809,31.25,477.539,17.09,-20.996
17.09,32.227,-30.762,13.184,-1.953
18.555,30.273,-324.707,14.16,7.324
32.227,26.855,-101.074,10.742,-10.254
43.457,28.809,300.293,11.23,-8.301
41.992,34.18,467.773,18.066,-5.859
30.273,33.691,106.934,18.555,44.434
22.949,28.32,-246.094,20.508,24.902
39.551,29.785,-148.926,23.438,-1.465
56.152,34.668,274.414,25.879,35.645
51.27,31.25,570.801,27.344,35.645
50.293,26.855,143.066,17.578,55.176
36.621,31.738,-342.773,12.207,32.227
28.809,36.133,-166.992,15.137,4.883
39.551,30.762,225.586,17.09,31.738
52.246,26.855,491.211,16.602,1.953
43.457,28.32,282.715,12.695,23.926
19.531,28.809,-149.902,5.371,24.414
17.578,29.785,-324.219,4.395,24.902
33.203,30.273,-31.738,6.348,59.082
47.363,28.809,427.734,9.277,62.5
35.645,26.367,195.312,6.348,3.418
19.531,28.32,-363.77,-1.465,-63.965
22.949,29.297,-252.93,-0.977,-42.969
38.086,26.367,192.383,0.488,31.738
41.992,27.344,571.289,14.16,71.289
43.945,29.785,403.32,21.973,53.711
39.062,28.32,-83.984,12.207,29.297
24.902,25.879,-283.203,13.672,-12.207
40.039,27.344,-15.625,24.902,27.344
57.129,32.227,337.402,26.855,50.781
45.41,33.691,173.828,19.531,-28.809
14.16,33.203,-276.367,15.625,-0.488
10.742,31.25,-287.598,16.602,25.391
45.898,31.25,-8.301,19.531,-10.742
52.246,28.32,432.617,21.484,41.504
38.086,29.297,461.426,18.066,28.809
35.645,35.645,9.277,13.672,36.621
35.156,33.203,-228.027,11.23,60.547
44.434,29.785,-90.82,15.625,50.781
52.734,28.809,323.242,14.648,37.598
39.062,30.762,356.934,7.324,-17.09
21.484,31.25,-93.75,0,-3.906
15.625,32.227,-384.766,-6.348,73.242
32.227,36.133,-248.047,-2.441,24.414
51.758,37.109,207.031,5.371,-54.199
48.34,38.574,465.82,9.766,-23.438
37.598,38.086,-103.027,11.719,1.953
35.645,37.109,-475.586,3.418,33.691
45.41,36.621,-218.262,3.418,0
62.012,35.645,235.84,5.859,-9.277
52.734,33.691,534.18,7.324,42.48
32.715,31.738,183.105,11.23,63.965
30.273,32.715,-244.141,10.254,48.34
31.25,35.156,-300.293,12.695,62.988
39.062,32.715,103.516,12.695,88.379
48.34,31.25,425.781,16.113,8.301
40.527,32.715,112.305,20.02,5.859
28.809,32.715,-288.574,20.02,36.621
38.574,31.738,-241.211,15.625,31.738
56.152,33.691,113.77,20.508,40.527
49.316,35.156,473.145,18.555,50.293
30.762,33.691,110.352,7.812,33.691
28.809,35.156,-516.113,7.324,1.465
44.434,36.621,-352.539,3.906,22.461
57.129,33.691,149.414,7.324,38.574
62.012,33.691,443.359,12.207,41.992
50.293,35.645,178.711,11.23,66.895
43.457,34.18,-302.246,7.812,83.008
41.992,32.227,-250,5.371,26.367
58.594,31.25,183.105,11.719,40.039
81.543,33.203,541.992,10.254,51.758
65.918,28.32,333.984,0.488,16.113
44.434,29.297,-141.113,-2.441,1.953
47.363,35.156,-261.23,1.953,-6.348
52.734,33.203,6.836,7.324,-9.277
64.453,34.18,439.453,14.16,0.488
49.805,36.133,366.211,20.02,-2.93
23.438,33.203,-157.715,21.973,-10.254
32.715,33.203,-381.348,16.602,-0.977
43.945,33.203,-20.996,16.602,23.926
57.129,31.25,516.602,22.461,49.805
62.5,31.25,513.672,21.484,45.898
36.133,32.715,-164.551,16.602,24.414
28.809,30.762,-360.84,14.16,37.109
53.223,30.273,95.703,18.555,74.219
63.477,34.18,477.539,20.508,59.57
49.805,33.203,470.215,15.137,-8.301
30.762,31.25,62.988,20.02,2.93
22.461,30.762,-197.266,20.508,41.016
31.738,27.344,-198.73,10.254,-3.418
48.34,24.902,231.445,12.695,13.184
48.34,25.391,548.34,20.508,70.312
33.203,23.926,-50.293,16.602,16.602
29.785,24.414,-404.297,6.836,-4.883
36.621,26.855,13.672,14.16,45.41
43.945,28.809,434.082,19.531,52.246
50.781,29.785,630.859,19.531,66.895
37.598,27.832,255.859,23.438,40.527
25.879,27.344,-163.574,20.02,20.508
30.273,28.809,-120.605,13.672,-1.953
46.387,32.227,292.48,20.02,9.766
49.316,33.691,528.809,21.973,23.926
30.273,32.227,80.078,12.695,0.977
16.113,30.762,-349.609,7.812,-17.09
26.367,33.203,-26.855,11.719,22.949
38.574,34.668,343.262,10.254,-10.254
43.945,35.156,606.934,15.625,28.809
26.855,32.227,457.031,21.973,85.449
19.043,31.25,8.301,13.184,61.523
24.414,32.715,-1.953,2.441,107.91
35.645,31.25,270.508,6.348,51.27
47.363,35.156,585.449,11.23,1.465
35.156,33.203,449.219,12.207,76.66
14.16,30.762,-130.371,10.742,40.039
16.113,35.645,-246.582,-0.488,8.301
42.48,36.621,218.262,6.348,17.09
49.805,34.668,677.246,10.742,-13.672
23.926,31.25,553.223,-0.488,52.246
7.324,29.785,19.531,0.488,36.133
5.859,26.855,-48.828,0,35.645
24.414,18.066,210.449,23.926,71.289
32.715,27.344,589.844,23.926,15.137
3.906,40.527,607.91,-4.883,18.555
-8.789,31.738,-25.391,0.488,-4.883
-9.766,30.273,-70.801,12.207,42.969
-3.906,35.156,279.785,5.371,81.543
-0.488,33.203,595.703,9.277,36.133
-7.812,34.18,720.703,19.531,-19.043
-17.09,39.062,118.652,15.137,-2.441
-11.719,38.574,-130.859,13.184,12.695
-0.488,37.109,394.531,23.926,57.617
16.602,36.621,839.844,27.832,104.98
28.809,35.645,801.758,27.832,15.137
13.672,41.016,393.066,27.344,38.574
17.578,43.457,54.199,25.391,27.344
29.785,41.992,206.055,31.25,33.691
42.48,45.898,676.758,35.156,57.129
40.039,49.805,762.207,27.344,35.645
15.625,53.223,208.008,19.043,25.391
