TP9,AF7,AF8,TP10,Right AUX
11.719,25.879,-240.234,24.902,70.801
9.766,24.414,-465.82,18.555,64.941
13.672,29.785,-401.367,10.254,33.691
15.625,30.762,-125.488,9.277,70.312
8.301,29.297,-204.59,7.812,97.656
13.184,30.762,-345.703,13.672,87.402
19.043,30.273,-620.117,16.602,9.277
13.184,30.762,-620.117,12.695,3.906
12.695,29.785,-213.867,9.277,62.988
11.719,26.367,-167.969,4.883,9.766
15.137,24.902,-280.273,6.836,-0.488
12.695,26.367,-327.148,7.324,64.453
9.277,30.273,-369.141,5.371,43.945
11.719,32.227,-363.77,6.836,7.812
14.648,33.203,-312.988,3.418,55.664
22.461,31.738,-319.336,9.277,65.918
25.879,30.273,-398.438,8.301,66.406
23.438,32.227,-452.637,2.441,79.102
19.531,28.809,-433.594,5.371,32.715
35.156,26.855,-319.824,10.742,0
36.133,29.785,-253.906,12.695,20.996
13.672,31.25,-437.5,6.348,16.602
10.254,31.25,-476.562,3.418,0
11.23,28.32,-284.18,1.953,19.043
7.324,29.297,-322.754,3.906,-20.02
15.137,30.762,-294.922,10.254,-12.207
29.297,32.227,-354.98,13.672,79.102
20.996,31.738,-437.5,12.207,57.129
17.578,31.738,-363.77,8.789,-27.344
20.996,33.203,-372.559,13.184,7.324
36.133,32.227,-337.402,18.066,43.945
42.48,35.645,-383.789,10.254,36.133
14.648,37.598,-339.844,7.324,52.246
18.066,34.668,-201.172,5.859,54.688
27.344,32.227,-216.797,5.371,69.824
19.531,31.738,-239.746,13.184,59.57
24.902,32.227,-400.391,11.23,11.719
25.391,31.25,-418.945,2.441,10.254
20.508,28.32,-243.652,-0.977,26.367
25.391,29.297,-227.051,8.789,31.738
32.715,32.227,-212.891,16.113,46.875
42.969,34.668,-330.078,18.066,40.527
38.086,36.621,-433.594,19.531,26.367
20.996,31.25,-339.355,17.578,20.02
19.043,30.762,-324.707,16.113,-31.25
20.02,34.18,-263.184,13.184,-11.719
27.832,33.691,-210.938,13.672,26.367
29.297,35.156,-415.039,18.066,30.762
22.949,35.645,-374.512,13.184,7.324
28.32,36.133,-112.793,14.648,-28.32
31.738,35.156,-187.012,17.578,-6.348
41.504,34.18,-262.695,20.508,6.836
40.527,31.25,-264.648,20.508,32.715
31.738,29.785,-350.098,15.137,17.09
29.785,30.762,-317.383,12.695,7.812
27.832,29.785,-334.473,16.113,-43.457
31.25,31.25,-266.602,18.066,-19.043
28.809,29.297,-336.914,17.578,41.016
24.902,27.832,-545.898,15.625,4.883
36.621,29.297,-261.23,14.16,-5.859
43.945,28.32,-53.711,19.531,-18.066
42.48,28.809,-96.191,27.832,42.48
43.945,29.297,-244.629,21.973,69.336
44.434,26.855,-337.402,17.09,19.531
35.645,28.32,-291.504,15.137,7.324
30.273,28.809,-397.949,15.625,-34.668
31.738,26.855,-421.387,19.043,-62.988
40.527,27.344,-387.207,23.926,-37.598
42.48,28.809,-292.969,27.344,2.93
36.133,28.32,-193.848,24.414,51.27
33.691,26.855,-301.758,19.531,0.977
28.809,31.25,-294.434,23.438,-11.23
24.414,31.738,-339.844,21.973,105.957
21.484,29.785,-462.402,16.602,89.355
31.25,30.273,-436.035,15.625,-22.461
31.25,26.367,-393.555,13.672,-20.508
20.508,28.809,-357.422,12.207,9.277
32.227,30.762,-518.066,11.23,7.324
35.645,30.273,-591.797,7.324,-2.441
39.062,35.645,-472.168,8.301,-0.977
44.434,38.574,-441.406,11.719,-3.418
40.527,37.598,-394.043,18.066,11.23
38.086,35.645,-382.324,24.414,38.086
42.969,35.156,-615.234,21.973,34.668
46.387,34.668,-545.898,17.09,37.598
46.387,34.668,-257.324,19.531,-3.906
44.434,32.715,-266.113,20.508,-16.113
43.945,28.32,-340.82,25.391,23.926
45.41,27.344,-443.359,29.297,24.414
54.688,28.32,-482.422,28.809,44.922
48.34,28.32,-424.805,26.367,44.922
50.781,27.832,-318.848,29.297,20.508
51.27,27.832,-299.805,35.645,65.43
42.48,27.344,-445.312,36.621,58.594
57.129,26.855,-472.168,40.527,10.254
69.824,23.926,-304.688,44.434,40.039
62.012,20.508,-267.09,43.945,55.664
62.5,20.508,-305.176,43.457,46.387
59.082,20.02,-402.832,42.48,65.43
49.316,22.949,-399.902,38.574,37.598
55.664,26.367,-329.59,34.18,-4.395
53.711,28.809,-375.488,28.809,4.883
40.527,34.18,-345.703,29.785,43.945
33.203,33.203,-380.371,25.391,43.945
34.668,33.691,-286.133,22.461,58.594
35.156,35.156,-172.852,21.973,59.57
33.203,34.18,-202.148,16.602,48.828
32.715,34.18,-193.359,21.484,76.172
34.668,34.18,-360.352,18.555,51.27
32.715,33.203,-379.883,11.23,20.996
31.25,34.18,-171.875,10.742,22.461
29.297,36.133,-135.254,20.508,29.785
33.203,36.621,-138.672,28.809,26.367
42.969,34.18,-264.16,20.996,49.805
37.109,31.738,-330.078,18.555,34.668
36.621,34.668,-188.477,20.996,22.949
47.852,34.18,-145.02,22.461,24.902
48.828,33.203,-75.684,22.949,28.32
39.062,33.203,-110.84,23.926,40.527
39.062,28.809,-282.715,24.414,32.715
45.41,23.438,-76.172,23.438,26.367
47.852,27.832,75.684,25.391,0.977
44.434,31.738,55.176,23.438,43.457
47.852,29.785,-104.004,21.484,37.109
57.129,33.691,-180.664,19.531,-5.859
54.688,32.715,-74.219,13.672,25.391
48.34,28.809,-67.871,14.16,15.137
51.27,29.297,-6.836,15.137,2.441
45.898,26.855,-25.879,14.16,-5.859
39.062,27.344,-35.645,17.578,28.32
40.527,28.32,-6.836,10.254,4.883
44.922,30.273,10.254,14.16,-36.621
48.34,33.203,65.918,20.02,-6.836
43.457,35.156,103.516,16.113,57.617
46.875,35.156,78.613,19.531,58.594
47.852,32.715,125.488,16.602,-9.277
43.945,32.227,173.828,17.578,-3.418
39.062,29.297,91.797,20.508,-9.277
34.668,27.344,67.383,20.996,-5.371
39.551,27.832,76.66,20.996,24.414
42.48,29.297,101.074,19.531,-5.859
35.156,31.738,150.879,20.02,-38.086
40.527,37.109,209.473,20.508,-16.113
39.551,37.598,280.762,26.367,45.41
39.551,37.109,193.848,29.785,43.945
44.434,35.156,162.598,32.715,18.066
39.551,34.18,260.742,30.273,38.574
35.156,35.645,249.512,21.973,3.418
41.992,37.109,271.484,31.25,11.719
42.969,39.062,198.242,28.809,14.16
41.992,39.062,158.203,22.461,-25.391
40.527,37.598,269.043,22.949,-19.531
41.504,38.086,303.711,18.066,0
48.828,40.527,306.641,20.508,5.859
46.875,39.062,237.305,21.484,31.25
31.25,37.109,167.969,16.113,1.953
26.855,31.25,260.742,16.113,6.836
23.438,31.25,316.406,25.391,67.871
17.578,33.203,311.035,26.855,56.641
13.184,29.297,219.238,21.484,53.711
18.555,30.273,147.949,20.508,47.363
19.531,33.203,228.027,18.555,48.34
16.602,31.738,214.844,21.973,29.297
24.414,33.691,243.164,26.367,25.879
20.508,37.109,246.094,25.879,72.754
13.672,34.18,45.41,27.344,71.777
16.113,29.785,98.633,26.855,44.434
19.531,30.762,253.418,23.926,20.996
17.09,33.203,211.914,21.484,-22.461
13.184,30.273,186.523,13.672,13.672
15.625,31.25,161.133,9.766,82.031
7.812,32.715,145.02,11.719,64.453
4.395,29.297,157.227,12.695,48.34
3.418,28.809,121.094,13.672,35.156
11.719,28.32,74.219,7.812,20.508
18.555,29.785,-51.758,1.953,37.598
7.324,33.203,-218.75,-1.465,-6.348
6.348,31.738,18.555,0.488,-31.25
15.137,25.391,226.074,5.859,10.742
20.996,23.926,222.656,11.23,33.203
20.996,24.902,60.059,15.625,33.203
19.531,28.809,-9.766,12.695,54.199
16.113,30.762,85.938,8.789,48.34
18.555,26.855,33.203,9.766,3.906
25.879,25.879,34.668,15.137,53.223
21.484,26.367,-133.301,10.742,78.613
13.184,27.344,-234.375,8.301,30.273
20.508,33.203,-152.832,10.742,7.324
23.926,31.25,-47.852,14.16,71.777
24.902,30.762,-7.812,19.043,100.586
30.273,34.668,-171.875,14.648,39.551
35.156,33.203,-217.285,12.207,14.16
23.926,34.18,-113.77,10.254,23.438
27.344,34.668,-104.492,8.301,31.25
37.109,35.156,-92.773,13.184,53.711
26.367,37.109,-211.426,14.16,54.199
24.414,37.109,-285.645,10.254,19.531
27.344,36.621,-190.43,8.301,-2.93
28.809,37.598,-165.039,14.16,25.879
28.809,39.062,-155.273,13.672,52.734
38.574,36.621,-301.27,16.602,-0.488
26.855,37.598,-391.602,15.137,-36.133
18.555,39.551,-278.32,11.23,-18.555
18.555,39.062,-287.109,18.555,-41.504
15.625,36.621,-229.004,20.02,-0.977
24.414,34.18,-284.668,17.09,26.367
16.602,34.18,-415.527,14.16,-21.484
18.066,38.574,-313.477,14.16,-10.742
23.926,39.062,-248.047,19.043,20.508
19.043,35.645,-290.039,15.625,-6.348
16.602,34.668,-300.293,17.578,11.719
22.461,34.18,-442.383,20.508,40.039
28.32,36.133,-406.25,15.625,-2.441
30.762,35.156,-187.988,14.16,-7.812
37.598,31.25,-183.105,21.973,21.973
32.715,30.762,-183.594,28.809,38.574
21.484,32.227,-381.836,15.625,27.832
22.949,33.203,-480.957,7.324,-0.488
20.508,29.297,-125.488,15.625,-0.488
27.344,25.879,4.883,17.09,13.184
32.715,25.879,-87.891,19.531,6.348
27.344,29.785,-366.699,20.02,13.184
24.414,32.715,-361.816,16.113,5.371
29.297,31.738,2.93,14.16,28.32
31.738,32.715,-15.625,20.02,72.266
32.715,30.762,-60.547,22.461,82.52
38.574,28.809,-149.902,19.043,31.738
34.18,26.855,-126.953,15.625,30.762
29.785,25.391,-29.297,15.625,53.711
22.461,26.367,-35.156,16.602,41.992
20.508,25.879,-13.184,19.043,62.012
14.648,28.32,-93.262,18.066,36.133
15.137,27.832,-93.75,15.625,-2.441
18.066,26.855,-49.805,16.113,24.414
15.137,26.855,-48.828,16.113,-13.184
16.602,22.949,145.02,18.066,20.508
15.625,19.531,87.402,22.949,86.426
15.625,19.531,-16.113,21.973,18.555
17.09,20.996,145.02,19.043,41.016
20.996,21.484,92.773,20.02,21.973
22.461,20.508,181.152,22.949,29.297
20.02,20.996,113.281,24.902,76.172
24.902,25.879,6.836,22.949,34.668
26.855,27.832,168.945,21.484,6.348
22.949,26.367,204.102,17.09,16.113
22.461,29.297,146.484,21.484,10.254
27.344,31.25,93.262,20.02,2.441
29.785,30.273,49.316,13.672,36.133
20.508,32.227,254.395,13.672,24.902
22.461,32.715,411.133,16.602,1.953
12.207,32.715,389.16,17.09,23.438
20.02,35.156,304.688,14.648,44.434
29.785,31.738,150.391,14.648,41.016
15.625,27.344,254.883,14.648,58.594
12.207,28.809,340.82,19.531,18.555
7.812,30.273,333.008,18.066,-30.762
11.23,30.273,314.453,15.625,-0.488
24.414,32.227,177.246,19.531,2.93
16.113,32.227,217.285,18.066,-15.625
9.277,31.738,392.578,20.508,30.273
18.066,31.738,358.887,25.391,23.926
16.113,33.203,259.766,23.438,-28.32
21.484,32.227,230.957,19.531,38.574
25.391,29.297,253.906,20.508,24.902
24.902,29.785,304.199,29.297,-15.137
29.785,35.156,322.754,28.809,5.859
24.902,38.086,317.383,25.391,27.344
24.902,35.156,154.297,23.926,7.324
20.508,35.156,152.832,20.996,-12.695
26.367,36.133,264.648,22.461,16.113
36.133,35.645,274.414,27.344,43.457
19.531,35.156,283.203,27.832,32.715
11.719,33.691,177.246,22.461,18.555
20.996,34.668,234.863,18.066,32.715
23.926,35.156,362.793,21.973,16.602
30.273,34.668,335.449,27.344,3.906
21.973,35.156,337.402,28.32,46.875
18.066,35.156,164.551,23.438,53.223
32.227,37.109,87.402,19.043,0.488
27.832,36.133,236.816,19.043,-22.461
32.227,31.25,260.742,24.414,0
23.926,31.738,205.078,26.367,28.809
7.812,35.645,81.055,20.02,23.438
15.137,34.668,93.262,15.625,35.645
21.973,32.227,203.613,21.973,18.066
18.066,35.156,207.52,26.367,3.906
16.602,39.062,236.816,23.438,26.367
14.648,37.598,163.574,26.367,29.297
8.789,37.109,89.355,27.344,12.695
24.902,34.668,171.875,31.738,-20.02
30.762,32.715,198.242,22.461,-21.484
24.414,34.18,227.051,9.766,20.508
23.438,37.109,188.965,13.184,40.039
20.02,36.133,-8.301,13.184,53.223
26.367,37.109,29.297,18.066,0.488
38.574,36.621,194.824,19.043,-42.969
25.879,37.109,173.828,9.277,-23.438
15.625,38.574,150.391,14.16,-15.137
15.625,38.086,-27.344,19.043,26.367
19.043,40.039,-64.941,17.578,17.578
26.367,40.527,267.578,16.602,21.973
40.527,40.527,307.617,20.996,48.828
38.574,39.062,134.277,24.902,41.992
34.18,41.016,14.648,24.414,46.875
35.156,41.016,-8.301,19.043,16.602
28.809,41.504,-51.27,23.438,10.254
40.039,40.527,-88.379,28.809,18.555
26.855,40.039,-9.277,26.367,41.992
15.137,43.457,-27.832,22.461,71.289
25.879,44.434,-52.246,18.066,45.41
25.391,41.504,-23.926,20.02,24.414
25.879,41.016,-101.074,23.926,6.836
29.785,45.898,-71.289,30.762,8.789
32.227,46.387,-159.18,26.855,24.902
22.949,42.48,-181.641,21.484,33.691
22.461,39.062,-120.605,17.09,0.977
31.738,39.551,-131.348,18.555,0.977
28.809,41.504,-166.504,22.461,59.57
20.996,40.039,-335.449,16.113,36.133
18.066,41.016,-281.25,15.137,9.277
30.762,39.551,-67.871,19.043,68.359
31.738,40.039,-113.77,22.949,62.012
18.066,43.457,-199.219,22.461,-3.906
22.461,45.898,-322.266,17.09,20.508
15.625,41.992,-320.312,14.16,54.688
24.414,39.062,-276.855,19.043,22.949
35.156,41.016,-305.664,26.367,14.648
26.367,39.551,-164.062,30.273,41.504
23.438,37.598,-321.777,33.203,21.484
18.555,38.086,-483.887,30.273,5.859
21.973,36.621,-392.578,20.508,-20.02
23.926,36.133,-301.758,20.996,13.672
20.508,34.668,-244.141,22.461,71.777
22.461,33.691,-372.559,25.391,44.922
15.137,36.133,-472.656,24.902,14.648
13.672,37.598,-415.039,22.461,-27.344
17.09,38.086,-357.422,24.414,-5.859
17.578,37.109,-323.242,26.367,60.059
20.02,34.668,-389.648,27.344,71.289
12.695,35.156,-654.297,17.578,20.508
9.277,35.645,-587.891,12.207,-3.418
17.09,33.691,-378.418,15.137,8.301
12.207,35.645,-442.871,19.531,-5.859
0.977,36.133,-470.703,22.949,-8.789
0.488,35.645,-638.672,17.09,41.992
3.418,38.574,-741.699,14.16,21.973
7.324,38.574,-418.457,9.277,4.395
4.883,39.062,-286.133,14.16,45.41
4.395,36.621,-438.965,20.508,62.988
16.602,35.645,-629.883,10.254,27.832
6.836,33.691,-657.227,5.859,-25.879
3.418,31.25,-583.496,5.859,-35.156
17.09,34.668,-589.844,14.16,-17.09
8.301,37.598,-633.301,20.508,43.945
-0.488,36.621,-756.348,14.16,50.293
3.418,38.086,-736.328,12.207,-22.461
11.719,41.016,-521.484,14.16,11.23
15.625,39.062,-504.883,17.578,57.617
20.508,38.086,-561.523,17.09,52.246
18.555,39.062,-662.109,13.672,98.145
14.16,38.086,-710.938,14.648,53.223
17.578,40.039,-599.609,14.648,16.602
14.16,39.551,-595.215,12.207,19.531
19.531,39.062,-562.012,19.531,34.18
18.555,39.551,-661.621,16.113,81.543
13.184,39.551,-811.523,14.648,29.297
22.461,41.016,-687.5,20.02,-31.738
22.949,39.551,-546.875,15.137,-33.203
19.043,38.574,-447.754,16.113,51.27
27.344,40.527,-603.516,18.555,106.445
24.414,39.551,-671.387,15.625,75.195
22.949,37.109,-563.477,15.625,-6.836
25.879,37.109,-546.875,18.066,-5.371
22.461,36.133,-476.562,20.508,49.805
22.949,31.738,-597.168,19.531,59.082
20.02,32.227,-697.754,15.137,24.414
23.438,35.156,-574.219,15.137,-37.598
29.297,32.715,-578.613,20.996,-33.203
31.25,33.691,-570.312,23.438,-11.719
33.203,34.668,-539.551,15.625,28.32
23.438,33.203,-563.477,6.348,44.434
20.02,31.25,-496.094,6.836,28.809
29.785,29.785,-458.496,10.254,9.277
32.227,30.273,-452.637,16.602,15.625
39.551,32.227,-425.293,21.484,53.711
43.945,30.273,-590.82,18.555,62.5
33.203,29.297,-590.82,16.602,20.508
27.344,33.691,-252.93,18.066,42.969
25.391,32.715,-242.188,21.973,69.336
27.832,29.785,-449.707,27.344,6.348
20.508,28.809,-639.16,21.484,3.906
25.391,33.203,-664.551,17.578,-0.977
36.621,36.621,-276.855,23.926,22.949
44.434,36.133,-96.191,27.832,70.312
40.527,29.785,-203.613,25.391,87.402
24.414,27.832,-330.566,21.973,85.449
29.785,31.738,-340.332,20.508,54.199
38.574,32.715,-275.879,17.09,49.316
29.297,32.227,-292.969,15.625,64.941
27.344,29.297,-302.734,16.602,0.977
31.25,31.25,-323.242,11.23,-4.395
29.785,33.691,-355.469,9.277,16.602
36.621,30.762,-291.016,8.789,11.23
43.945,28.32,-132.324,13.184,36.621
51.27,30.273,-71.777,21.484,12.207
56.641,30.762,-214.844,18.066,24.414
50.781,30.273,-225.098,10.742,31.25
48.34,31.25,-68.359,15.137,15.137
40.527,29.785,-30.273,19.043,56.152
33.691,26.367,-20.02,20.996,55.176
42.969,32.715,-184.082,18.555,44.434
41.016,38.086,-295.41,14.648,18.066
34.18,33.691,-63.477,16.602,-3.418
37.598,32.227,-66.895,20.02,-7.324
36.621,33.691,-6.348,16.602,-9.766
38.574,32.715,37.109,12.695,20.02
37.598,32.227,-176.758,8.789,-1.953
37.598,35.156,17.09,12.695,-30.762
35.156,35.156,193.848,17.578,-20.02
34.18,31.25,192.383,18.555,39.551
30.273,29.785,114.746,16.113,95.703
26.367,33.203,-25.879,9.277,56.152
24.414,33.203,42.48,11.719,6.348
27.832,32.715,120.605,21.973,35.156
23.438,31.25,87.402,24.902,14.648
18.555,32.715,-18.555,23.926,23.926
25.879,34.18,-37.598,22.461,45.41
17.09,30.273,79.102,18.555,21.484
22.949,31.738,193.359,18.066,49.316
33.203,35.645,192.383,23.926,43.945
28.32,33.691,102.051,22.949,33.691
22.949,32.715,-14.16,18.555,40.527
22.461,33.203,41.992,19.043,27.344
26.367,32.715,105.957,19.531,0.488
28.32,32.715,108.887,20.02,20.02
26.367,34.18,134.766,20.996,90.82
26.855,33.691,-25.879,19.043,79.102
31.738,36.621,-102.051,17.09,30.273
30.762,41.016,-26.855,19.531,10.742
40.039,41.992,66.895,21.973,18.555
31.25,37.598,157.227,24.414,58.594
20.508,37.598,-22.461,22.949,53.711
24.414,37.598,-39.551,17.09,50.293
22.949,36.133,77.148,19.043,43.457
19.043,36.133,19.043,24.414,11.23
25.391,35.645,43.945,24.902,60.547
28.809,35.645,-144.043,21.973,43.945
29.785,36.621,-199.219,20.508,-26.855
36.621,36.133,-20.02,23.926,-8.301
39.062,36.621,-125.488,22.461,-5.371
38.086,37.109,-119.629,16.602,1.465
27.832,35.645,-159.668,15.625,29.785
28.809,37.109,-268.555,18.066,29.297
38.086,40.527,-28.809,19.043,-8.301
33.691,37.598,95.703,18.066,10.254
29.785,36.133,23.438,21.973,52.734
27.832,38.086,-207.031,20.996,31.738
33.203,37.109,-256.348,13.184,6.348
29.297,34.668,-75.684,12.207,5.859
28.809,37.598,-38.086,16.113,63.965
41.992,38.574,-89.355,21.973,79.59
22.461,32.715,-240.234,23.438,62.012
11.719,32.715,-517.09,16.602,18.066
21.973,33.691,-359.375,14.16,21.973
32.715,32.227,28.32,15.137,52.246
34.668,29.785,11.23,20.02,49.805
29.297,31.738,-150.391,24.414,54.688
33.691,32.715,-311.035,23.926,-11.719
38.086,33.203,-246.094,22.461,-38.574
45.898,35.645,-168.457,18.555,25.879
39.551,33.691,-289.062,17.578,-6.836
41.016,30.273,-327.637,22.461,-30.273
52.246,32.227,-320.312,20.02,8.301
52.246,35.156,-392.578,14.16,2.93
46.387,35.156,-341.309,17.09,1.465
38.574,35.645,-221.191,25.391,17.578
36.133,37.109,-228.027,28.32,63.965
23.926,33.691,-383.301,26.367,90.332
29.785,31.25,-453.125,23.438,-2.93
32.227,34.668,-363.281,25.391,-23.438
25.879,36.133,-335.449,25.879,31.25
30.273,36.133,-392.09,22.461,11.719
33.203,34.668,-520.508,20.996,19.531
28.809,33.691,-448.73,24.414,75.195
24.902,33.203,-441.895,25.391,27.344
30.273,34.18,-552.246,22.461,-5.371
39.062,35.645,-490.234,22.949,19.043
39.062,37.109,-530.273,22.949,39.062
35.645,33.691,-526.367,26.367,39.551
26.855,34.18,-369.629,23.438,15.625
30.273,38.086,-366.211,22.461,-14.648
39.062,39.062,-399.902,22.949,-14.648
36.133,37.598,-548.828,18.555,0.488
30.273,34.668,-585.449,17.578,-0.977
33.203,35.645,-419.434,16.602,-3.418
40.039,34.18,-385.742,18.555,37.598
46.875,33.203,-387.207,25.879,66.895
42.48,32.715,-622.07,25.391,18.066
41.504,28.809,-760.254,25.391,7.324
45.41,31.25,-431.152,26.367,90.82
38.574,31.738,-291.992,22.461,105.469
33.691,32.227,-293.945,22.461,79.59
30.762,33.691,-442.383,22.461,18.555
26.855,32.227,-791.016,16.602,-36.133
27.832,31.25,-572.754,14.16,-20.996
30.762,30.273,-188.965,15.137,23.926
38.086,27.832,-215.82,18.066,62.012
30.762,26.855,-373.535,18.555,31.738
23.926,26.855,-453.125,9.277,14.16
24.414,29.297,-423.34,7.324,9.277
20.996,34.668,-392.09,12.695,0.488
27.832,35.156,-259.766,13.184,7.812
23.926,35.645,-228.027,15.625,41.504
19.531,34.18,-418.945,15.625,44.434
21.484,32.715,-386.23,17.578,10.254
21.484,32.715,-167.48,21.973,37.109
35.645,33.691,-173.828,25.879,52.246
31.25,33.203,-214.355,23.438,71.289
23.926,35.645,-342.773,16.113,54.199
39.062,38.574,-286.133,19.043,17.09
32.715,35.645,-135.254,20.02,46.387
17.578,35.156,-250.977,19.531,13.184
19.043,34.18,-243.652,16.602,48.828
8.301,34.668,-244.629,12.695,32.227
0,37.109,-153.32,15.625,-5.859
0.488,35.156,-51.27,14.648,-13.184
4.395,36.621,-36.133,16.602,13.184
9.277,34.668,-26.855,15.625,46.875
7.324,34.668,-199.219,10.742,26.367
7.324,35.645,-168.457,8.301,1.953
10.254,33.203,7.812,9.766,-3.906
10.742,31.738,21.484,18.066,24.414
10.254,33.203,-11.719,21.973,-2.441
13.672,30.762,-113.77,19.531,34.18
21.973,30.273,-170.41,18.066,20.508
13.184,31.25,-7.812,20.996,3.418
1.465,30.762,84.961,22.949,57.617
12.695,25.879,68.848,22.461,40.527
15.625,26.367,-40.039,20.508,16.113
9.277,26.855,-92.773,14.16,-38.574
14.648,28.32,83.496,10.254,-22.461
24.414,31.25,141.602,18.066,15.137
20.508,30.762,153.809,20.02,14.648
16.113,32.715,138.184,13.672,73.73
19.043,31.25,-89.844,14.648,20.02
20.508,28.809,41.504,17.578,-13.672
19.531,31.25,253.418,18.066,33.691
23.438,33.691,198.73,19.531,35.156
29.785,32.715,110.84,20.508,3.906
17.09,30.762,-66.406,13.672,25.391
7.324,30.273,-11.23,13.672,36.621
11.719,28.809,299.805,15.625,14.16
17.09,27.344,321.289,13.672,27.344
20.02,26.855,162.109,15.625,41.992
12.695,26.855,10.254,14.648,11.719
13.184,29.785,41.016,16.113,-19.531
25.879,32.715,104.98,15.137,23.438
21.484,30.762,-18.555,11.719,20.508
18.066,28.809,-147.949,16.602,-20.02
31.738,29.785,-94.727,18.555,0
32.227,29.785,66.895,18.555,41.992
29.785,32.715,73.242,28.32,27.832
20.02,31.25,11.23,25.391,8.301
16.113,29.297,-5.859,16.113,30.762
25.391,31.738,-175.293,11.719,-16.113
19.043,27.832,-103.027,10.742,3.906
12.207,24.902,29.785,12.207,60.059
27.832,25.391,-51.758,15.137,19.531
34.668,25.391,-51.27,18.066,46.875
34.668,28.809,-189.453,17.09,95.703
33.203,29.297,-252.441,12.695,76.172
29.297,29.785,-131.836,10.742,48.828
24.414,28.809,-72.754,12.207,57.617
27.344,29.297,-58.105,17.09,16.113
33.691,31.25,-258.789,18.066,13.672
35.645,30.762,-458.008,15.137,44.434
37.598,31.738,-138.184,16.602,41.504
37.598,32.715,40.527,21.973,38.086
28.32,30.762,-82.031,27.832,11.719
23.926,28.809,-183.594,23.926,47.852
32.715,32.715,-243.652,21.973,35.156
33.691,32.715,-246.582,25.879,13.184
29.297,28.809,-213.867,23.926,56.152
29.297,28.32,-74.219,23.438,64.941
27.832,29.297,-197.754,23.926,36.133
32.227,31.25,-282.227,17.09,47.852
33.691,31.738,-151.855,18.555,49.805
33.203,30.762,-131.348,17.09,4.883
34.668,32.227,-84.961,14.16,-3.906
35.156,30.273,-166.992,16.602,17.09
36.621,29.297,-229.492,11.719,46.875
35.645,33.691,-65.918,7.812,42.48
32.227,31.738,-47.852,9.277,10.254
35.645,30.273,-122.07,14.16,14.16
39.551,33.691,-188.477,17.09,27.344
37.598,36.621,-179.688,16.602,19.043
35.645,34.668,-2.93,14.648,-14.16
36.133,34.668,80.566,16.602,-7.812
45.41,36.621,72.266,17.09,18.555
34.668,32.715,49.316,9.766,56.641
25.879,31.738,-125.488,9.766,33.691
30.762,34.668,-40.527,14.648,10.742
34.18,34.18,114.258,13.184,35.645
37.598,33.203,97.168,18.066,49.316
39.551,36.621,50.781,24.414,57.617
34.18,38.086,-187.988,19.043,-49.805
33.203,34.668,-159.668,14.648,-65.918
39.551,31.25,-3.906,16.602,-32.227
37.598,30.273,73.242,18.555,8.789
28.809,34.668,119.629,16.113,74.219
28.32,35.645,34.668,14.648,66.895
38.574,29.297,19.531,10.254,17.09
45.898,31.25,84.961,12.207,-15.137
48.34,31.25,125.488,16.113,33.203
38.574,28.809,188.477,19.043,102.051
28.32,32.227,-40.527,18.555,29.297
36.133,31.738,-121.094,17.09,28.809
36.133,28.809,148.926,18.066,80.566
35.645,31.25,118.164,20.508,39.062
35.156,33.203,90.82,28.32,51.758
34.668,36.621,11.23,29.785,49.316
42.969,35.156,-25.879,21.484,36.133
45.898,34.18,97.656,22.949,65.43
39.062,35.156,9.766,26.855,3.906
36.133,34.18,26.367,21.973,17.578
32.715,28.809,-35.645,16.113,30.273
32.227,29.297,-302.246,14.648,1.953
27.344,29.297,-149.902,9.766,-37.598
27.832,28.32,137.695,7.812,-55.176
27.832,31.25,65.43,10.742,34.18
23.438,31.25,-146.484,11.23,47.852
22.461,27.344,-176.758,7.812,-9.766
23.438,27.344,-19.531,5.371,-26.367
20.996,29.785,-5.859,8.301,21.973
20.508,28.809,-51.758,10.254,32.715
27.344,26.855,-167.969,9.766,13.672
31.738,29.297,-272.461,7.324,18.555
34.18,31.25,-155.762,9.766,9.766
34.18,31.738,-103.516,15.625,16.602
29.785,30.273,-136.23,13.184,31.738
29.297,28.32,-201.172,10.254,17.09
32.715,29.785,-352.051,10.742,16.602
34.668,32.227,-324.219,16.602,0.488
30.273,30.762,-160.156,17.09,-6.836
22.949,27.832,-132.812,18.555,40.039
28.32,29.785,-182.617,22.949,15.137
29.297,31.738,-257.324,19.043,-9.766
28.809,31.25,-227.539,18.066,27.344
35.156,30.762,-123.535,21.973,45.898
33.691,29.297,-140.137,23.438,17.578
26.855,31.738,-187.5,20.996,7.324
26.855,29.785,-284.18,17.578,24.414
27.344,26.855,-259.766,17.09,11.719
32.715,27.832,-195.312,17.578,38.574
36.133,31.25,-224.609,20.996,56.152
28.32,30.762,-168.945,22.461,66.406
21.973,25.391,-256.348,15.625,49.805
28.32,26.367,-262.207,11.23,23.438
34.668,25.391,-135.254,17.09,29.785
32.715,25.879,-105.957,21.973,44.434
33.203,32.227,-120.605,20.996,14.648
44.922,32.715,-220.703,19.531,-11.719
46.875,34.668,-198.73,19.531,-2.441
31.25,38.086,-88.867,23.926,-34.668
32.227,37.109,-42.969,20.02,5.859
41.016,38.574,-13.184,17.09,58.105
38.086,39.551,-74.707,21.484,98.145
37.598,39.551,-305.664,20.02,61.035
43.457,40.527,-198.242,20.996,8.789
41.992,39.551,112.305,27.344,29.297
37.109,36.621,212.891,28.809,60.547
48.828,34.668,58.105,31.25,56.641
50.293,31.738,-142.09,28.809,-7.324
38.086,31.25,-10.742,31.738,-0.977
40.527,33.203,69.824,29.297,15.625
48.828,32.227,92.285,23.438,9.277
41.992,31.738,13.672,23.438,18.555
36.133,32.227,-140.625,18.555,9.277
37.109,33.203,-12.695,17.578,1.953
36.621,33.203,148.926,19.531,3.418
32.227,32.227,193.848,18.066,43.945
25.391,32.227,127.441,20.508,84.961
26.855,32.227,-39.551,16.113,36.621
32.227,29.785,52.734,14.648,-8.789
25.391,29.297,139.16,14.648,-9.277
13.184,30.762,140.137,15.137,18.555
10.742,31.738,93.75,16.602,29.297
11.23,32.227,-42.48,10.254,12.207
9.277,33.691,42.969,7.812,10.742
9.766,34.668,78.613,12.695,5.859
20.02,38.574,41.016,18.066,10.254
29.297,39.062,42.48,22.949,2.441
20.508,35.156,2.441,15.137,-7.812
14.16,36.621,46.875,12.207,-27.832
13.672,34.668,133.301,20.508,-13.672
16.113,27.344,157.715,22.461,27.344
13.184,27.344,133.789,15.137,29.297
13.672,27.344,61.035,9.766,38.574
8.301,28.809,37.109,6.348,24.902
4.395,28.32,92.285,5.371,-7.812
11.23,25.391,126.953,14.648,36.133
15.625,26.855,128.418,19.531,66.895
17.578,28.809,14.648,11.23,62.988
14.16,32.227,-24.902,8.789,27.832
19.531,32.227,115.723,13.184,54.199
17.578,32.715,129.883,13.672,98.633
14.648,33.691,62.012,15.137,60.059
14.648,33.691,-91.797,12.207,31.25
13.672,34.668,-218.75,3.906,5.371
12.207,33.203,-37.109,8.301,-27.832
14.648,31.738,121.094,12.695,-20.996
22.949,33.203,163.086,8.301,25.391
20.02,31.25,19.043,7.324,65.918
11.23,31.738,-364.746,1.953,21.973
13.184,32.227,-169.922,4.883,7.812
16.113,32.715,125,13.184,29.785
20.996,35.645,-23.438,19.531,20.508
22.461,31.738,-180.664,22.461,-37.598
22.949,31.738,-397.949,19.531,-38.086
25.391,35.645,-200.684,19.531,35.156
25.879,35.156,-6.836,25.879,-2.93
20.508,33.203,-81.055,26.855,-11.23
18.066,32.715,-139.648,19.043,38.086
26.855,33.203,-296.875,16.113,-0.977
20.02,30.762,-270.996,16.602,-37.598
15.625,27.832,-274.414,16.602,19.043
17.09,26.367,-333.008,13.672,43.457
17.578,25.879,-316.895,13.184,21.973
14.648,24.902,-393.555,11.719,0.488
14.648,28.809,-339.355,11.719,-2.93
23.438,30.762,-300.293,17.09,51.27
22.949,29.785,-375.977,21.973,69.336
27.832,30.273,-393.066,20.02,20.996
28.32,30.273,-483.398,11.719,48.34
28.809,32.227,-450.195,10.254,65.918
34.668,33.203,-397.949,17.09,20.996
35.645,34.18,-426.27,17.09,39.551
36.133,36.133,-486.328,14.648,65.43
34.668,37.109,-708.984,12.695,36.133
32.227,37.109,-806.641,11.719,-20.508
35.156,37.109,-428.711,18.066,-13.672
35.645,35.156,-278.809,18.555,17.578
28.32,33.691,-397.461,16.602,17.09
28.32,35.156,-572.754,14.648,-4.395
22.461,29.785,-577.637,13.184,7.812
17.09,28.809,-494.141,14.648,55.176
29.785,31.738,-529.297,19.043,29.297
31.738,30.762,-472.656,21.484,43.945
37.109,32.715,-611.816,17.578,34.668
43.945,30.762,-715.82,21.973,20.02
45.898,30.273,-587.891,25.391,54.199
48.34,33.691,-494.629,24.414,50.781
38.574,33.691,-445.801,20.508,48.34
28.809,32.715,-600.098,18.066,57.129
31.25,31.738,-694.336,13.672,23.438
37.598,34.18,-580.078,12.695,-17.09
40.527,33.691,-500.488,15.625,29.785
30.762,30.273,-429.199,11.23,72.754
21.484,30.273,-554.688,4.883,71.777
31.738,28.809,-747.559,7.812,35.156
40.039,26.855,-646.484,13.672,-13.672
40.039,27.344,-536.621,18.555,21.973
46.387,31.25,-541.992,21.973,41.992
41.992,28.809,-568.848,17.09,50.293
41.504,28.32,-582.031,19.043,47.852
57.129,31.25,-402.832,24.902,61.523
49.316,27.832,-411.133,25.391,43.945
43.457,30.762,-496.094,25.391,7.324
48.828,31.25,-546.387,23.438,16.602
58.105,30.273,-666.504,19.531,-5.859
53.223,33.691,-588.379,15.137,-46.387
45.898,32.715,-466.309,11.719,-26.855
57.129,34.668,-463.867,17.578,2.93
56.641,34.18,-555.664,19.531,33.691
50.781,32.715,-646.484,13.672,24.902
46.875,31.25,-548.828,12.695,22.949
43.945,27.832,-440.43,13.672,51.27
41.016,24.902,-479.98,10.742,23.926
32.715,27.832,-472.656,11.23,10.254
28.809,32.227,-623.047,11.23,6.836
34.668,32.715,-628.906,7.324,15.137
30.762,29.785,-258.301,9.277,48.34
23.926,27.344,-242.676,11.719,54.199
36.133,25.391,-336.914,11.719,46.387
39.062,23.926,-573.242,9.766,5.371
36.621,20.996,-875,5.371,-42.969
35.156,23.438,-538.086,12.207,-16.602
33.691,27.344,-183.105,23.926,5.371
38.574,25.879,-320.312,19.043,0.488
27.832,23.438,-464.355,15.625,57.617
25.391,22.461,-397.461,19.531,48.34
34.668,22.949,-311.523,22.949,-8.301
36.133,20.02,-275.391,25.391,49.805
36.133,23.438,-313.477,26.367,40.039
36.621,26.367,-473.145,24.414,-10.742
40.527,24.902,-465.332,23.438,-12.207
41.992,29.297,-305.176,29.297,-0.977
40.039,32.715,-361.328,30.273,34.18
43.457,34.668,-356.934,27.344,13.184
39.062,31.25,-363.281,24.414,-1.953
35.645,28.809,-404.297,20.02,25.391
36.133,30.273,-261.719,17.578,-2.93
41.016,31.738,-242.676,22.949,-1.465
42.48,33.203,-262.695,23.926,43.945
46.875,32.715,-339.355,20.508,7.324
51.27,34.18,-419.922,19.043,-50.293
48.34,32.715,-222.656,15.625,12.207
51.758,32.715,-145.996,17.578,48.828
54.199,32.227,-175.781,22.949,48.828
44.434,28.809,-321.289,22.949,38.086
34.668,29.297,-420.898,20.02,19.531
33.691,30.273,-204.102,22.461,37.598
40.039,29.297,-97.656,31.25,68.848
45.898,29.297,-188.965,32.715,26.367
41.016,30.273,-250,30.762,-0.488
34.18,33.691,-330.566,30.273,14.16
34.668,34.668,-225.098,31.25,31.738
46.387,34.18,-185.547,30.762,28.809
42.969,31.738,-179.688,29.297,54.199
40.527,31.738,-128.418,28.809,63.965
36.133,31.25,-319.336,25.391,8.301
23.926,31.25,-345.215,23.926,-6.348
37.598,32.715,-213.379,27.832,15.137
48.828,35.156,-174.316,26.855,46.387
40.039,38.574,-152.344,24.414,32.227
34.18,36.133,-352.539,24.902,-28.32
39.062,35.156,-335.449,23.438,-4.395
35.156,32.715,47.363,21.973,44.922
33.691,32.227,117.188,25.879,95.703
39.062,35.156,-32.715,25.879,58.594
40.039,34.18,-237.793,18.066,29.785
41.504,31.738,-222.656,15.625,57.129
29.785,29.297,-149.414,13.672,17.09
23.926,29.785,-182.617,12.695,24.902
25.879,28.32,-125,18.555,62.012
16.602,22.949,-240.234,20.508,5.859
18.066,22.949,-449.219,19.531,-24.902
22.461,22.461,-132.812,20.996,68.848
22.949,20.02,226.074,21.484,114.746
17.578,19.531,138.672,21.484,74.219
14.648,19.531,-92.285,20.996,5.859
23.438,24.414,-143.555,21.973,-14.648
13.184,27.832,-6.836,23.926,-20.508
2.441,25.879,33.203,25.879,-9.766
6.348,28.32,43.457,24.414,11.719
4.883,29.297,-72.754,21.484,41.016
13.184,31.738,-150.879,20.508,34.668
27.344,32.715,65.918,13.672,38.086
17.578,27.832,194.336,13.184,31.25
8.301,30.273,186.035,15.137,17.578
12.695,35.156,120.605,7.812,29.297
10.254,35.645,28.809,7.324,20.02
7.812,37.598,156.738,14.648,0
8.301,36.133,238.281,11.23,-3.906
10.254,30.762,247.07,10.742,26.367
7.324,30.762,223.633,16.113,53.711
8.789,28.809,102.051,10.742,22.461
11.719,29.297,86.426,9.277,-20.02
7.812,27.344,225.586,11.23,-24.414
6.836,27.832,424.805,11.719,54.688
9.277,32.715,417.48,6.348,97.168
2.93,30.273,229.98,-1.465,39.062
5.371,30.762,291.504,0.488,6.348
11.719,34.18,400.391,8.301,14.16
5.859,33.691,399.902,12.695,21.484
6.836,32.715,450.684,7.324,63.477
4.883,31.738,315.43,4.395,68.359
13.184,34.668,316.406,8.789,11.719
18.066,35.645,487.305,11.719,27.832
11.719,35.156,398.926,14.648,52.246
11.719,33.691,333.984,13.184,17.09
6.836,32.715,233.398,9.766,-10.254
6.836,35.645,216.797,7.324,-45.898
8.301,36.133,585.938,13.672,-31.738
10.254,32.227,724.609,20.02,56.152
10.742,31.738,569.336,16.113,42.48
14.648,31.25,385.742,10.254,35.645
25.879,32.227,238.77,14.16,3.906
19.043,33.203,520.508,20.02,-14.16
14.16,34.668,724.121,17.578,39.551
19.531,35.156,679.688,15.137,85.938
14.648,33.691,416.992,13.672,44.434
9.766,27.832,254.883,9.277,14.16
23.438,28.32,574.219,15.625,30.273
32.715,31.738,693.848,19.531,32.715
19.043,29.297,669.434,13.672,87.402
14.16,29.785,510.742,16.113,48.34
18.555,33.203,438.965,21.484,33.691
27.832,38.574,607.422,22.949,80.566
35.156,34.668,606.934,25.391,88.379
25.879,29.297,507.812,25.879,62.012
21.484,30.762,405.762,25.391,-25.391
24.414,27.832,420.41,22.949,-18.555
11.719,25.879,484.375,20.996,27.832
7.812,26.855,499.512,21.973,33.203
10.742,27.832,554.688,20.02,-12.695
9.277,27.832,556.641,19.531,-18.555
10.742,28.32,476.074,19.043,18.066
25.879,31.25,540.527,14.648,-2.441
34.668,31.25,624.023,20.508,29.785
20.996,31.738,559.082,21.484,24.902
23.438,32.227,540.527,18.066,13.672
29.297,34.668,319.824,15.137,34.668
23.438,33.691,388.672,10.742,62.5
25.391,28.809,601.074,9.277,49.805
23.438,28.809,462.891,14.648,34.18
23.438,26.367,496.094,11.23,43.945
23.438,26.855,442.871,0.977,-3.906
27.344,29.297,516.113,3.418,36.621
38.574,29.785,607.422,5.859,41.504
29.785,27.344,515.625,9.277,-13.184
17.09,29.297,474.121,8.301,-31.738
9.277,31.738,352.051,7.324,-24.414
19.531,31.25,407.715,9.277,21.484
29.785,32.227,560.547,14.16,51.27
30.762,30.762,518.555,18.066,48.34
32.227,28.32,462.891,14.648,36.133
35.156,31.738,276.855,13.184,37.598
38.086,35.645,207.031,18.555,17.09
29.297,34.668,418.457,25.879,-5.859
28.32,34.18,577.148,29.785,54.688
35.156,33.203,523.926,28.809,36.133
37.109,31.738,289.551,28.809,-22.949
35.645,33.691,298.34,24.902,14.16
27.832,35.645,453.613,23.438,-5.859
26.855,31.25,432.617,30.762,-13.184
29.297,28.809,459.961,28.32,42.48
34.668,33.203,306.641,25.391,37.109
41.992,30.762,190.43,28.809,-3.418
36.133,27.344,273.438,30.273,-24.414
27.832,28.32,276.855,33.691,-23.926
27.832,28.809,322.266,32.227,8.301
31.25,28.809,281.25,31.738,35.645
39.062,27.832,212.891,26.367,17.578
45.41,31.25,343.262,22.949,49.316
40.527,36.621,370.117,27.832,67.871
39.551,38.086,280.762,26.367,17.578
36.133,36.133,266.113,26.367,11.23
27.344,37.598,50.781,24.414,-21.973
23.438,37.109,172.363,25.391,-24.414
34.18,34.18,487.793,32.227,7.324
34.668,33.691,355.469,32.715,50.781
33.203,33.691,250.488,25.879,69.336
48.828,33.691,72.266,20.02,34.668
48.34,33.691,-16.602,23.926,0.977
41.504,37.109,374.512,31.738,47.363
44.434,37.598,518.066,30.273,76.172
44.922,38.574,262.695,26.367,31.738
43.945,38.574,151.855,26.855,55.176
39.062,36.133,246.094,23.438,62.988
40.039,34.18,229.98,25.391,-7.812
45.898,35.156,245.117,31.738,37.109
44.434,33.691,176.758,26.367,22.461
41.016,36.621,-10.742,20.02,10.254
42.48,40.527,49.316,19.043,22.949
41.992,38.086,233.887,22.461,13.184
41.016,34.18,263.672,23.926,92.285
37.598,34.668,175.781,18.555,69.824
30.762,35.645,-39.062,17.578,-1.953
28.809,29.785,-26.855,18.555,-4.395
30.273,30.762,106.934,20.02,-41.992
34.668,32.227,114.746,20.508,-20.02
34.668,30.762,100.098,17.578,40.527
38.574,29.297,-27.832,13.672,34.668
28.809,31.25,-17.09,12.207,21.484
23.438,32.227,57.617,16.113,22.949
26.367,34.18,23.438,18.066,11.23
29.785,36.133,66.895,14.648,12.207
34.18,35.645,-15.625,15.137,26.855
23.438,36.621,-10.742,16.602,-1.953
16.113,34.668,168.945,19.531,-26.855
13.184,32.227,157.715,26.367,32.227
18.066,33.691,128.906,28.809,60.547
18.066,35.156,40.039,27.832,47.852
9.766,32.715,-73.73,22.461,34.18
13.184,29.785,62.012,22.461,20.02
21.484,28.32,48.828,24.414,-14.16
22.461,30.273,-66.406,21.484,-24.414
13.672,32.227,-85.449,16.602,19.531
9.766,33.691,-107.422,19.531,-1.953
11.719,38.086,19.043,24.902,13.672
17.09,41.016,49.805,22.949,20.02
25.879,40.039,14.648,22.949,25.391
17.09,38.086,16.602,26.855,34.18
13.672,36.133,-219.727,24.902,-15.625
17.578,35.645,-107.91,20.996,-8.301
20.996,36.133,247.559,26.367,54.688
22.461,35.645,158.691,28.32,57.617
18.555,34.18,35.156,28.32,22.461
18.066,35.645,-231.934,27.344,-12.695
27.344,34.668,-438.965,27.832,-46.387
29.297,33.691,-55.176,33.203,23.926
26.367,33.691,228.027,33.203,67.871
28.32,34.18,75.684,31.738,-5.371
27.832,34.18,-91.797,31.738,-25.879
32.227,31.738,-17.09,31.25,41.992
23.438,33.691,49.805,32.227,49.316
12.695,35.156,-55.176,32.227,-0.488
18.555,33.691,-88.379,29.785,1.953
24.414,33.691,-144.531,22.461,40.527
27.344,35.645,-145.02,22.949,27.832
30.762,37.109,-122.07,31.25,21.973
29.297,35.156,-134.277,24.414,51.758
25.391,35.156,-14.16,14.16,65.43
23.438,35.645,-112.305,13.672,52.734
24.414,34.18,-259.766,13.672,4.395
25.879,32.227,-122.07,20.996,-32.715
20.02,27.832,27.344,24.414,14.16
14.648,28.32,9.277,18.066,20.02
20.02,32.715,-175.293,13.672,-13.184
28.32,34.668,-167.48,17.09,33.203
25.391,34.18,43.457,20.02,55.176
20.508,36.621,22.949,18.066,39.062
19.043,38.086,-82.031,14.648,45.41
19.531,36.621,-195.801,13.184,45.898
18.555,37.109,-201.66,12.207,7.324
18.066,37.598,46.387,16.113,15.625
20.02,38.086,114.258,22.949,31.25
21.973,33.203,51.758,20.02,30.762
18.555,31.738,-25.879,15.625,55.664
21.973,34.18,-145.508,15.137,49.316
20.508,36.621,2.441,15.625,56.641
17.09,38.574,76.66,21.973,67.871
14.648,39.551,0.977,25.391,34.18
11.719,38.086,0.488,19.043,83.008
8.789,40.039,-120.605,16.602,97.168
7.812,39.551,-145.508,20.508,26.367
16.602,36.621,-22.949,21.973,36.133
16.602,38.086,-19.043,20.02,39.551
8.789,38.574,-63.477,18.555,-19.043
16.113,37.598,-193.359,14.16,-19.531
16.602,37.598,-105.957,17.09,34.18
15.625,37.109,219.238,23.926,48.34
21.484,32.227,197.754,21.973,13.672
22.461,31.738,66.406,21.484,16.602
22.949,39.062,-200.195,25.391,-6.836
21.484,38.086,-196.777,24.414,-49.805
22.461,32.715,80.078,23.926,-6.836
24.414,32.715,120.605,24.902,58.105
23.926,32.227,156.25,20.02,41.016
25.879,34.18,-85.938,15.625,12.207
30.273,36.621,-209.473,17.578,-14.16
30.762,34.668,110.352,24.902,-12.695
20.02,33.691,181.641,26.367,46.387
20.02,32.227,101.562,19.043,68.359
19.531,31.25,-51.27,14.648,38.574
17.09,33.203,-80.078,21.484,8.301
24.414,34.668,49.316,28.32,35.156
18.555,37.598,47.363,34.668,68.359
10.742,38.086,-44.434,36.133,88.867
16.113,34.18,-223.633,25.391,61.523
17.09,33.203,-154.785,20.02,13.672
19.531,33.203,89.355,23.438,38.574
28.32,31.25,34.18,23.926,24.414
22.461,30.273,14.16,24.902,35.156
17.09,33.203,-128.418,21.973,21.484
22.461,34.18,-224.609,16.602,-16.113
24.902,34.668,-35.156,17.578,-9.277
18.555,33.203,1.465,20.02,17.09
13.672,33.691,9.277,18.555,64.941
15.625,36.133,-78.613,17.09,74.707
23.438,36.133,-266.113,16.113,43.945
29.785,32.715,-178.223,18.555,37.109
25.391,30.273,-54.199,21.973,48.34
22.461,29.785,-10.254,16.113,59.57
24.414,30.273,-72.754,12.207,16.113
35.645,30.273,-179.199,18.066,3.418
39.062,29.297,-51.27,19.531,29.785
23.438,32.227,7.812,26.367,37.598
24.414,35.645,-52.246,24.414,21.484
21.973,33.203,-93.75,13.184,17.578
13.672,31.738,-184.57,14.16,15.625
20.508,32.715,-68.359,20.508,48.34
25.391,30.273,-51.27,21.973,53.223
24.902,29.785,-167.969,26.367,18.066
27.344,32.715,-162.109,22.461,-9.277
25.879,32.715,-185.059,16.113,-19.531
20.508,32.227,-92.285,20.996,0.488
26.367,32.227,3.418,29.297,20.508
30.273,31.738,-22.949,28.32,29.785
31.25,36.133,11.23,19.531,38.086
30.762,38.086,-103.516,14.648,21.973
27.832,34.18,-141.602,13.184,-22.461
27.344,27.832,112.793,14.648,19.043
19.043,29.785,195.312,14.16,82.031
14.648,36.133,45.41,15.137,51.758
17.578,34.668,-182.617,11.719,-11.23
24.902,31.738,-219.238,6.348,31.25
21.484,30.273,62.988,11.23,65.43
7.812,31.738,207.52,20.996,34.18
16.602,34.18,199.219,21.973,26.367
31.25,34.668,-19.043,18.066,-3.906
31.738,35.156,-247.559,16.113,-12.695
38.574,35.156,67.871,19.531,18.066
44.434,35.156,285.645,25.879,54.199
34.668,36.621,213.867,24.902,82.52
36.133,36.133,44.922,19.043,60.547
42.969,34.668,-113.281,14.648,7.812
40.527,34.18,11.719,18.066,3.418
37.598,34.668,148.438,23.926,31.738
39.062,35.645,124.512,21.973,-3.906
36.621,34.668,-0.488,12.695,-22.949
30.273,32.715,-66.895,9.277,-23.926
36.133,31.738,77.637,16.602,-42.48
33.691,30.762,174.316,18.555,28.809
33.203,33.691,122.559,20.02,31.25
25.391,36.133,4.395,16.602,-11.719
24.414,33.203,-68.359,10.254,0
16.602,33.203,59.57,13.184,-1.953
13.184,34.18,87.402,14.16,33.691
24.414,32.227,59.57,8.301,84.473
22.461,35.156,-18.066,6.348,42.969
28.809,38.086,-83.984,10.254,-39.062
18.066,34.18,172.363,14.16,26.855
22.949,33.203,237.305,19.043,66.895
32.715,33.691,95.703,20.02,5.371
22.461,33.203,88.867,18.555,29.785
19.531,32.715,-28.32,17.09,14.648
27.344,31.738,-14.16,21.484,-25.879
30.762,30.273,109.375,29.785,-9.277
16.113,27.832,121.582,23.438,47.363
16.113,28.809,-12.207,12.695,61.523
35.645,29.785,-158.203,15.137,24.414
38.574,34.668,-48.34,24.414,41.504
29.297,34.18,41.992,25.879,41.992
34.18,31.738,31.25,24.902,49.316
37.598,32.715,-5.859,24.902,30.762
34.18,33.691,-166.504,20.508,-15.137
36.133,34.18,-122.07,20.02,20.508
36.621,35.645,64.453,20.508,53.711
42.969,34.668,31.738,21.973,46.387
37.109,32.227,17.578,20.508,54.199
29.785,35.156,-135.742,14.648,19.043
27.344,34.668,-275.879,14.16,20.996
20.996,32.715,-37.109,14.16,58.105
27.344,33.203,82.52,7.324,83.496
28.32,32.715,-32.227,2.441,25.879
31.25,32.715,-116.211,3.418,-13.672
31.25,33.691,-140.137,10.742,-2.441
29.297,32.715,-11.23,16.602,-0.488
37.598,32.715,-22.461,15.625,27.832
41.016,34.668,-63.477,11.719,56.641
39.062,34.18,-168.457,6.836,60.059
43.945,34.668,-481.445,7.324,12.695
44.434,35.156,-283.691,8.789,38.086
45.41,32.715,-104.004,6.348,47.363
35.645,33.203,-239.258,7.324,27.832
26.367,34.668,-213.379,12.695,42.969
34.18,33.691,-257.812,13.672,27.344
41.504,33.691,-174.316,14.648,28.809
44.434,32.227,-157.715,13.184,91.309
44.434,36.133,-210.938,16.113,111.328
49.805,38.086,-315.918,22.949,41.504
51.758,35.645,-472.168,22.949,-11.719
53.223,33.691,-387.695,24.902,-7.324
58.594,33.203,-323.73,27.832,-3.418
58.594,31.738,-323.242,21.973,42.48
47.852,29.785,-486.816,20.02,46.387
61.035,32.227,-576.172,26.367,48.34
64.453,33.203,-400.879,29.785,70.312
52.734,36.621,-373.535,34.18,36.133
58.594,38.574,-409.18,36.133,66.895
60.059,37.598,-498.535,31.738,56.152
58.594,32.715,-642.578,30.762,41.016
60.059,34.668,-568.359,35.645,85.938
52.246,40.039,-531.738,39.062,86.426
46.387,38.574,-581.055,39.062,52.734
46.875,35.645,-585.449,32.227,10.742
40.039,37.109,-752.93,27.344,-23.438
33.691,38.086,-810.547,31.738,-32.715
33.203,40.039,-672.363,39.551,-7.324
32.715,40.527,-632.324,42.969,35.156
41.504,40.527,-636.719,40.527,43.457
38.574,38.574,-781.25,40.039,10.254
27.832,36.621,-809.57,41.992,9.277
25.879,37.598,-664.551,42.969,-10.254
22.461,34.668,-643.555,41.016,-6.836
25.391,33.691,-610.84,39.551,34.18
33.203,34.18,-682.129,36.621,56.641
36.133,37.598,-907.227,34.668,-1.465
31.738,41.992,-679.688,34.18,-34.18
25.391,38.574,-499.512,28.32,-0.488
19.531,35.156,-608.887,21.484,8.301
23.438,32.227,-577.148,21.484,19.043
18.555,30.762,-809.082,16.602,7.324
10.254,31.25,-668.945,15.137,24.414
26.367,36.133,-323.73,22.461,67.383
24.414,38.086,-428.223,17.09,62.012
12.207,35.645,-605.957,11.23,-1.465
15.625,38.574,-615.234,14.16,-20.508
14.648,38.574,-480.469,17.578,-0.977
21.484,35.156,-437.5,18.555,10.742
20.508,35.156,-400.391,15.137,66.895
14.16,35.645,-553.223,13.672,71.289
18.555,36.621,-634.766,16.113,14.16
18.066,31.738,-400.879,20.02,-6.348
18.066,26.367,-268.555,21.484,21.973
26.367,32.227,-318.359,20.508,-3.418
27.344,38.086,-333.496,21.484,4.395
27.344,36.621,-395.02,16.602,7.812
26.855,33.691,-303.223,17.578,-16.602
14.16,35.645,-134.766,20.996,34.18
14.16,39.062,-189.453,16.113,15.137
28.809,36.621,-230.469,10.254,-35.645
24.902,31.25,-281.25,8.789,-36.133
3.418,34.668,-274.414,6.836,-30.762
2.93,36.133,-136.719,6.836,-25.391
1.465,35.645,23.438,4.395,13.672
0,35.645,-11.23,0.488,-13.672
5.859,34.18,-99.121,1.465,-21.484
4.883,37.598,55.664,4.395,24.414
8.789,39.551,202.148,6.348,42.969
14.648,37.109,170.898,3.906,54.688
6.348,34.18,149.414,9.277,42.969
1.465,34.18,-12.695,8.789,-7.324
9.277,35.645,27.832,8.789,-24.414
9.277,33.203,303.711,7.812,55.664
0.488,36.133,202.637,9.766,66.406
-7.812,37.109,147.461,11.719,45.41
-0.977,32.715,85.449,9.766,9.277
14.16,31.738,78.125,10.254,-61.523
13.672,30.273,377.441,16.113,45.41
12.207,31.738,390.625,18.066,75.195
21.973,32.227,335.938,19.531,20.996
26.367,28.32,289.551,21.973,3.906
17.09,26.367,264.648,21.973,-29.297
23.438,27.832,459.961,25.879,24.414
33.691,28.32,488.77,22.949,61.035
22.949,31.738,411.133,23.926,23.438
20.02,32.227,414.062,23.438,23.926
23.926,25.879,280.273,22.949,28.32
24.902,28.32,207.031,29.297,23.438
23.926,31.738,532.227,31.738,41.992
26.367,29.785,721.68,27.832,17.09
11.23,29.785,541.504,23.438,-23.438
0.977,28.809,453.125,17.578,12.207
9.277,26.855,531.25,16.602,33.691
7.324,26.367,513.184,17.578,44.434
2.441,25.391,475.586,20.996,51.27
-1.465,24.902,408.691,19.531,12.207
8.789,26.855,309.082,13.184,29.785
14.648,30.273,283.691,18.066,21.484
14.16,26.855,314.941,19.531,-2.93
16.113,23.926,411.133,16.602,29.297
15.137,23.438,391.602,11.719,21.973
14.648,25.879,222.656,13.184,0.488
15.625,30.762,283.691,22.461,43.945
19.531,33.691,388.672,19.531,98.145
11.719,29.785,271.484,19.531,78.613
10.742,27.344,162.109,20.02,30.762
18.555,31.738,46.387,19.043,20.02
20.996,31.25,44.434,20.508,37.109
24.902,29.785,140.137,21.484,52.246
26.367,33.691,97.168,21.973,58.105
27.344,35.645,10.254,17.09,34.668
26.855,31.738,-116.699,14.16,-23.926
29.785,36.133,-48.828,20.996,28.32
38.574,42.969,90.82,21.973,76.66
32.227,42.969,89.355,20.02,103.027
30.273,40.527,7.324,19.531,71.777
31.25,35.156,-196.289,10.742,-9.766
32.227,31.738,-137.207,13.184,-13.184
35.156,35.645,63.477,16.113,5.371
44.434,39.062,9.766,10.254,19.043
45.41,39.551,-27.344,12.695,62.012
23.926,37.598,-251.465,10.254,57.617
29.297,39.551,-431.641,8.301,5.859
28.809,40.039,-206.543,18.555,36.621
23.438,35.156,-130.371,20.508,64.453
27.344,32.715,-186.035,11.23,61.035
23.926,32.715,-234.863,6.836,104.492
20.508,34.18,-331.543,6.348,59.082
26.855,33.203,-257.324,14.16,29.297
30.762,35.156,-219.727,21.973,53.223
19.043,35.156,-279.297,16.602,49.316
17.578,33.203,-350.098,15.137,25.391
27.832,34.18,-530.273,13.184,-25.391
34.18,32.715,-573.242,18.066,5.859
38.086,32.715,-257.324,24.902,40.039
24.902,34.668,-50.781,24.902,20.996
18.066,35.156,-238.281,22.461,19.043
28.32,38.574,-375.977,23.926,30.273
27.832,38.574,-266.113,23.926,25.879
23.438,36.133,-229.492,18.555,40.527
19.531,31.25,-305.664,19.531,48.828
20.02,33.691,-384.766,19.043,26.367
29.297,35.645,-505.371,20.996,0.977
27.832,32.227,-449.707,21.484,-10.254
27.344,30.762,-313.965,25.879,27.344
26.855,30.762,-407.715,29.785,80.078
19.531,32.227,-517.09,23.926,-2.93
22.949,34.18,-510.254,25.391,-42.969
20.996,35.645,-385.742,30.273,13.184
20.996,31.738,-255.859,29.785,37.598
25.391,31.25,-316.895,24.414,39.062
29.785,34.18,-480.957,19.531,1.953
32.227,33.691,-542.969,18.555,8.301
30.273,32.715,-386.719,20.996,24.414
20.508,29.785,-254.883,23.438,24.902
26.367,28.809,-297.363,24.414,33.203
25.879,31.738,-350.586,26.855,14.648
24.414,32.715,-534.668,22.949,-16.113
28.809,31.25,-539.551,21.973,-13.672
25.879,28.809,-346.191,18.555,9.277
34.18,32.715,-334.473,13.672,23.438
39.062,38.086,-347.168,13.184,9.766
41.016,36.133,-440.918,12.695,-20.508
48.34,32.715,-402.344,16.113,-42.48
37.598,30.762,-146.484,22.949,7.324
29.785,31.25,-233.887,23.438,32.227
41.016,37.598,-329.59,19.531,-8.789
42.48,40.527,-345.215,20.996,0
37.109,35.156,-462.891,18.555,24.902
41.992,32.715,-353.027,13.672,50.781
48.828,31.738,-280.273,16.602,73.73
47.852,32.227,-339.355,15.625,41.992
46.875,36.621,-357.91,7.324,25.391
44.922,37.598,-482.91,12.207,87.402
47.852,36.133,-399.414,18.066,110.352
46.875,37.598,-133.789,15.137,66.406
46.387,35.645,-187.012,18.555,31.738
47.852,33.203,-316.895,13.672,8.789
53.223,36.133,-452.148,11.23,-12.207
43.945,33.691,-328.125,13.672,37.598
33.691,31.738,-301.27,8.789,46.387
36.621,32.227,-427.246,9.766,30.273
41.016,29.785,-500,9.277,13.184
39.551,31.25,-505.371,9.766,-3.418
45.41,34.18,-363.77,14.648,4.395
48.828,36.133,-291.504,14.16,15.137
48.828,35.156,-321.289,14.648,57.617
48.828,30.762,-395.996,16.602,59.57
48.34,31.25,-539.551,11.719,44.434
58.105,33.691,-535.645,15.137,20.02
62.988,33.691,-440.918,16.113,-0.488
39.551,30.762,-484.375,12.207,-2.93
30.762,33.691,-549.316,10.254,-12.695
45.41,35.156,-678.711,9.766,19.043
44.922,32.715,-720.703,11.23,29.297
41.992,32.227,-581.055,13.184,16.602
46.875,30.273,-514.16,20.508,9.277
43.457,32.715,-535.645,18.066,20.508
40.527,35.645,-683.105,17.578,51.27
39.062,35.645,-708.008,20.996,54.688
34.18,33.691,-610.352,21.484,1.953
37.109,32.227,-641.113,19.043,10.254
41.504,31.738,-674.805,9.766,27.344
43.457,31.738,-830.078,10.254,6.836
35.156,34.668,-873.047,16.113,-12.207
29.297,37.598,-719.238,21.484,41.016
36.133,38.086,-754.395,20.508,60.547
44.922,39.551,-789.062,12.695,41.016
45.898,42.48,-848.633,14.16,32.227
42.969,38.574,-865.723,20.508,18.066
41.016,36.621,-758.301,18.555,14.16
40.527,38.574,-747.07,15.625,16.113
34.668,35.645,-773.926,13.672,22.949
32.227,34.668,-856.934,8.301,-11.719
40.039,35.156,-911.621,6.836,-15.137
44.434,35.156,-768.066,15.137,21.484
42.969,31.25,-580.566,21.973,78.125
32.715,30.762,-685.059,21.973,96.68
36.133,35.156,-865.234,19.043,43.457
46.875,33.203,-968.262,15.137,-4.883
44.922,32.715,-887.207,25.391,-21.484
42.969,33.203,-617.188,33.203,22.461
36.621,31.25,-603.027,20.508,52.734
37.109,32.227,-828.613,13.184,1.465
38.086,28.809,-1000,13.672,-20.996
25.879,26.367,-842.285,17.09,13.672
34.18,28.32,-634.277,23.926,62.012
38.086,30.273,-732.422,21.484,41.504
20.508,33.203,-854.98,19.043,-13.184
16.602,34.668,-949.707,17.578,-12.207
25.879,34.668,-907.227,19.043,10.254
32.715,34.18,-737.305,27.832,42.969
34.668,36.133,-719.727,25.391,94.238
34.18,37.109,-833.984,25.879,52.734
35.156,38.086,-956.543,30.762,-30.273
36.133,38.574,-907.227,32.715,-19.531
37.598,33.203,-813.477,32.227,-2.93
29.297,39.062,-821.289,34.668,10.742
15.625,41.016,-912.109,34.668,9.277
12.695,36.621,-982.422,30.273,-4.395
8.301,37.598,-891.602,28.809,8.789
7.812,37.109,-879.395,28.32,16.113
6.348,32.715,-893.066,25.879,31.25
1.953,30.762,-818.359,24.414,5.371
-1.465,29.297,-893.066,24.414,8.789
2.93,25.391,-909.18,27.344,28.32
5.371,24.414,-757.812,31.25,50.781
2.441,26.367,-781.738,28.32,54.688
2.441,29.297,-833.496,25.391,58.105
9.277,31.738,-884.766,23.438,49.805
14.16,36.133,-993.652,19.531,-0.488
12.207,31.738,-808.594,18.555,60.547
6.348,26.367,-747.07,17.09,56.641
8.301,29.785,-897.949,15.137,20.508
16.113,31.25,-921.875,18.066,55.664
12.695,29.785,-919.434,15.625,0
9.766,31.738,-741.699,14.16,19.531
16.602,32.715,-713.379,21.973,46.387
19.043,33.691,-793.945,23.926,7.324
9.277,32.715,-840.332,21.484,60.059
3.418,23.438,-935.059,17.578,31.738
7.812,22.949,-805.664,20.508,4.395
15.625,28.32,-741.211,22.949,1.953
24.902,27.344,-779.785,21.484,-15.625
16.113,27.344,-742.676,25.879,28.809
10.742,26.855,-860.352,27.344,16.602
11.719,27.832,-789.551,28.32,36.621
16.602,32.227,-712.402,30.762,20.02
26.367,33.691,-655.762,24.414,35.156
22.461,33.691,-572.754,26.367,77.148
24.902,35.645,-731.445,33.203,11.23
35.645,33.691,-659.668,31.738,9.277
29.297,27.832,-501.953,25.391,52.734
15.137,27.832,-570.312,21.484,25.391
19.531,30.762,-599.121,21.484,16.602
28.32,28.809,-665.039,20.02,27.832
27.832,25.879,-625.488,14.16,24.902
30.273,26.367,-558.594,9.277,46.875
35.156,28.809,-655.762,11.719,18.555
34.18,28.809,-639.16,8.789,-10.742
23.438,27.344,-630.859,10.742,61.035
26.367,31.25,-613.281,19.043,62.012
30.762,30.762,-472.656,21.484,11.23
25.879,29.297,-467.773,23.438,14.648
27.344,30.762,-454.59,19.531,37.598
34.668,32.227,-547.363,20.996,3.906
34.668,34.18,-683.594,20.508,0.977
30.762,34.18,-386.23,16.113,54.688
20.508,29.785,-224.121,13.672,6.836
25.879,29.297,-371.094,14.16,0.977
35.645,31.25,-480.957,21.484,42.48
21.484,28.32,-501.465,20.02,11.719
14.648,27.832,-363.77,20.508,18.066
22.461,25.879,-345.703,20.508,37.109
29.297,28.32,-458.008,13.184,-46.387
23.438,31.738,-445.312,9.766,-57.617
21.484,29.785,-591.309,11.719,-51.27
23.438,28.32,-457.031,12.695,-44.922
20.508,26.855,-35.645,6.348,36.621
20.02,26.367,-30.273,-4.883,73.73
14.648,24.902,-174.805,-8.789,49.316
0.977,11.719,-304.199,-6.836,29.297
5.859,8.301,-263.672,9.766,43.945
4.395,25.879,-132.324,0,56.152
-19.043,23.438,-95.703,-36.621,71.289
-18.555,19.531,-207.52,-41.504,22.949
-27.832,21.484,-294.434,-41.016,-14.16
-31.738,21.973,-136.719,-45.898,25.879
-28.32,25.391,-5.859,-50.293,82.52
-48.34,20.996,-73.73,-67.383,66.406
-49.316,23.438,-244.629,-69.336,-0.488
-44.434,29.785,-269.531,-66.406,-13.672
-48.34,35.645,-66.895,-78.125,4.395
-57.617,32.227,-58.105,-81.055,6.348
-55.664,38.086,-81.543,-89.844,33.203
-57.129,41.992,-31.25,-104.004,46.875
-70.312,41.016,-54.199,-107.91,53.711
-71.777,52.734,68.848,-110.84,75.195
-83.008,58.105,207.031,-120.605,65.43
-100.098,56.152,144.531,-139.648,39.551
-102.539,55.664,88.867,-154.297,6.348
-116.211,60.547,12.207,-166.992,20.02
-117.188,59.57,88.867,-164.062,67.871
-107.91,62.988,221.68,-165.039,54.199
-116.699,65.918,103.516,-178.711,16.602
-116.211,58.594,30.273,-176.758,22.461
-113.281,57.129,-20.02,-174.316,46.875
-124.023,63.965,-20.02,-173.828,19.531
-119.629,61.523,205.078,-162.598,41.992
-105.469,62.012,167.969,-151.855,6.836
-103.516,67.871,137.695,-152.832,-15.137
-94.727,57.617,177.734,-142.578,50.781
-77.637,53.711,10.742,-125.488,20.508
-67.871,53.711,237.793,-115.234,12.207
-74.219,47.852,425.293,-111.328,14.16
-60.059,45.898,339.844,-94.727,0
-41.016,46.387,194.824,-79.59,-29.785
-56.152,43.945,51.758,-83.008,-23.926
-51.27,41.992,230.957,-73.73,41.504
-21.484,48.34,294.434,-55.176,58.105
-20.508,40.527,254.395,-56.152,46.387
-24.414,32.227,244.141,-49.316,42.969
-5.859,38.574,-55.664,-31.738,36.621
3.418,38.086,27.344,-16.602,53.223
15.137,36.133,301.27,0,15.137
29.785,37.598,264.16,8.789,9.277
41.016,38.086,141.602,20.02,-28.809
59.57,37.598,75.684,34.668,-34.18
61.035,34.668,230.469,42.969,42.969
62.012,34.18,144.043,59.57,37.598
79.102,38.086,36.621,74.707,4.395
91.797,35.645,148.438,78.613,18.066
94.238,34.18,156.25,90.332,46.387
106.934,33.203,90.332,99.121,10.742
117.676,31.25,115.723,98.633,-3.906
119.141,36.133,182.617,104.98,5.371
132.812,38.574,188.965,111.816,30.273
142.09,37.598,97.168,119.141,63.477
146.484,37.109,101.562,122.07,44.922
155.273,41.504,208.496,122.07,46.875
147.461,43.457,140.625,125.488,39.551
136.23,38.574,1.465,120.605,30.273
137.695,35.645,-115.234,122.07,3.906
142.578,35.156,78.125,126.953,35.645
140.625,34.18,218.262,123.535,44.434
139.648,33.203,82.52,120.117,-27.344
139.648,38.086,83.008,122.559,-24.902
132.324,39.062,-83.008,121.094,-66.895
128.906,34.668,-82.031,114.746,-31.25
137.695,33.691,190.918,116.211,48.34
131.836,32.715,130.859,118.164,-1.953
122.07,29.297,112.305,114.746,-0.488
121.582,30.762,7.324,111.816,34.18
124.023,34.668,-123.047,111.816,33.691
126.465,35.156,40.039,112.305,47.363
131.836,32.227,23.926,110.84,11.23
132.324,30.273,19.531,104.492,1.465
124.023,31.25,73.242,104.98,59.57
118.652,31.738,-68.848,104.98,83.496
123.047,31.738,97.168,100.098,55.176
117.676,30.273,322.754,94.727,35.645
113.77,30.762,258.301,92.285,34.18
110.352,30.762,103.027,96.191,16.113
101.074,29.297,67.871,93.262,23.438
106.934,30.762,284.18,92.773,70.312
102.051,31.25,194.824,89.844,61.523
92.285,30.273,90.82,78.125,48.828
92.285,31.738,151.855,78.613,32.715
85.449,33.203,138.184,77.637,0.488
82.031,34.668,290.527,74.707,48.828
90.332,32.227,333.496,82.52,53.223
94.727,33.691,276.855,81.055,49.316
97.168,32.715,242.188,75.195,37.109
92.773,29.785,149.414,74.219,-17.578
78.125,29.297,304.199,75.684,32.227
81.543,28.809,394.531,75.684,45.898
87.891,29.785,353.516,64.941,37.598
83.984,30.273,247.559,62.5,30.762
77.148,30.762,171.387,62.988,6.348
73.73,30.762,307.129,62.5,10.254
83.496,32.227,422.852,61.035,43.945
79.102,32.227,417.48,59.082,55.176
70.801,33.691,402.344,52.734,21.484
74.707,33.203,389.648,49.805,6.836
74.219,30.273,471.68,53.223,39.062
67.871,30.762,549.805,50.781,41.992
55.664,34.18,492.188,45.898,2.93
42.48,33.203,485.352,40.039,-24.902
32.715,31.738,466.797,41.504,-26.855
34.668,31.738,520.996,46.387,-6.348
39.062,32.715,631.348,47.852,14.648
42.969,35.156,604.492,44.922,22.949
35.156,31.25,603.516,38.574,-13.184
19.531,29.297,591.797,39.551,-36.621
22.461,31.738,446.777,37.598,5.371
21.484,28.809,576.172,31.738,28.809
21.973,25.879,853.027,32.227,18.555
26.855,30.762,862.793,28.809,-20.508
23.926,37.109,740.234,18.555,-1.953
18.066,40.039,530.273,18.555,-3.906
12.207,36.621,764.16,24.902,36.133
9.277,35.645,815.43,27.344,63.477
18.555,39.062,691.406,27.832,52.734
21.484,32.715,721.191,26.367,41.992
22.461,32.715,714.844,29.297,49.805
20.02,31.738,801.27,32.227,48.828
22.461,28.32,753.906,32.227,62.988
21.973,30.762,725.098,31.25,57.129
25.879,31.738,659.18,28.32,0.488
35.156,29.785,600.586,38.086,12.207
29.297,30.273,751.953,37.598,65.918
33.691,31.738,760.742,29.297,61.523
34.668,33.203,686.523,30.762,49.316
26.855,34.18,525.391,30.762,2.441
25.391,37.109,529.297,33.691,35.156
20.508,36.133,712.891,31.25,61.035
19.043,34.18,708.984,25.391,14.16
22.461,37.109,673.828,24.414,34.18
24.902,38.086,595.215,31.738,-22.461
24.902,32.227,568.359,31.25,-1.953
28.809,30.273,564.453,29.785,24.414
34.668,30.762,610.84,29.785,38.574
34.668,31.738,643.555,22.461,32.227
28.809,32.227,604.004,16.602,-8.789
28.32,29.297,521.484,18.555,13.184
29.297,30.762,471.191,24.902,27.832
24.902,32.227,557.129,29.297,56.152
21.484,30.273,505.859,27.344,14.648
25.879,31.25,436.523,28.809,-66.895
29.785,32.715,496.094,28.809,-2.441
30.762,31.738,612.305,28.32,93.75
32.227,30.762,602.051,29.785,29.785
33.691,34.18,526.367,31.25,-12.207
34.18,31.25,543.945,27.344,-11.23
30.762,24.902,490.723,23.926,6.836
36.621,28.809,433.105,29.785,39.062
46.387,33.203,677.734,32.227,53.711
35.156,32.227,682.617,27.832,42.969
42.969,33.691,593.262,27.344,35.156
42.48,32.227,597.656,26.855,62.988
37.109,31.738,356.445,20.02,41.992
42.969,33.203,469.727,20.996,12.695
34.668,31.738,779.297,21.973,13.672
32.715,29.785,742.188,18.066,-12.695
34.18,27.832,603.516,23.926,-29.297
35.156,28.809,624.512,27.832,29.785
39.551,26.855,735.84,27.832,66.895
34.18,23.926,687.988,27.832,64.941
30.762,24.902,610.84,25.879,39.551
35.156,28.32,471.191,21.973,4.883
37.109,31.25,312.988,20.508,1.953
42.48,25.879,547.852,21.484,19.043
34.668,22.949,763.184,16.602,24.902
32.715,27.344,680.176,14.648,24.902
40.527,27.832,618.652,16.113,13.672
37.598,31.738,565.918,19.043,34.668
31.25,32.227,657.227,19.043,66.406
30.762,28.809,666.992,22.461,33.691
32.715,26.855,600.586,24.902,22.949
40.527,28.32,630.859,24.902,83.984
40.527,30.273,588.867,29.785,90.332
35.156,30.273,484.863,32.715,23.926
29.297,31.738,502.441,30.762,20.996
27.832,31.25,570.312,23.926,32.715
30.762,33.691,592.285,19.531,21.484
30.762,34.18,426.27,20.02,18.555
30.762,29.785,412.598,19.043,26.367
24.414,29.297,668.945,21.484,13.184
25.391,32.227,617.676,19.043,-20.02
29.297,32.715,557.129,13.672,-16.602
33.203,34.18,505.859,21.484,-3.906
21.484,35.645,511.23,19.531,-2.441
22.949,37.598,576.66,20.996,31.25
26.855,36.133,374.023,24.414,-3.418
26.855,34.668,337.402,20.508,0
24.414,29.297,395.508,16.113,9.277
28.809,22.461,433.105,23.926,-9.766
40.527,29.785,567.383,29.785,6.348
22.949,40.527,488.77,8.301,46.387
9.766,45.41,420.41,-0.977,-14.648
23.926,43.457,376.953,8.301,2.93
22.949,39.062,333.496,12.207,91.309
18.066,38.086,541.992,11.23,93.262
29.785,39.062,512.695,12.207,46.875
25.391,35.156,398.438,8.301,2.441
15.625,31.25,267.09,5.859,0.977
22.461,33.203,135.254,12.695,14.16
26.367,37.109,400.391,15.137,44.922
24.902,35.645,525.879,12.207,38.574
20.996,33.691,380.859,11.719,-40.527
19.043,31.25,293.945,13.184,-56.641
25.391,30.273,330.078,20.02,6.836
21.973,31.738,369.141,21.484,33.203
23.926,35.156,297.363,20.508,29.785
20.996,36.133,321.289,10.742,14.16
22.949,35.156,274.414,8.301,-5.371
30.273,33.691,211.914,14.648,-16.602
27.832,31.25,229.492,14.16,26.855
29.297,34.18,186.523,11.719,20.996
23.438,33.691,298.828,10.254,42.969
27.344,29.297,337.402,10.742,62.012
35.645,35.156,213.379,14.16,41.504
35.645,38.574,290.527,20.508,74.707
35.156,33.691,270.508,19.531,18.555
34.668,31.738,196.289,14.16,-0.488
40.527,31.738,167.48,21.484,-14.16
53.711,31.738,119.629,26.367,-1.465
49.316,29.785,159.18,20.996,56.152
36.133,27.832,166.504,21.484,31.25
44.434,29.785,65.918,21.973,-4.883
52.734,30.762,61.035,24.414,-17.578
39.551,28.32,16.113,26.855,5.859
32.715,30.273,-127.93,25.391,0
41.992,33.203,163.086,25.391,-4.883
41.504,29.297,345.703,21.484,12.695
41.504,27.832,277.344,15.625,40.039
44.922,28.809,199.219,22.949,77.148
50.293,29.785,149.414,28.32,49.316
51.758,26.855,139.648,21.973,-8.301
58.105,27.344,107.91,26.855,13.672
51.758,32.227,104.98,26.367,16.602
44.922,32.227,-77.637,11.719,8.789
63.965,31.25,-157.715,13.672,25.879
65.918,32.715,122.559,14.16,5.371
55.176,31.738,217.773,9.766,15.137
53.711,32.715,171.387,14.16,36.133
54.688,35.156,69.336,20.508,30.273
49.805,32.715,49.316,21.973,23.926
51.758,30.273,206.055,20.02,71.289
55.176,28.809,112.793,20.02,26.855
57.617,29.297,52.246,20.02,0
61.523,29.785,32.715,22.949,29.785
56.152,30.762,25.391,25.391,22.949
53.711,30.273,53.223,22.949,33.691
50.293,27.832,63.965,17.578,58.105
46.387,33.691,119.141,21.973,20.02
45.41,38.086,6.348,23.438,-20.02
52.734,35.645,32.715,20.996,17.578
54.199,34.18,259.766,20.02,68.359
37.598,33.691,281.25,18.066,106.445
43.457,36.621,163.086,13.672,85.449
44.922,32.715,117.676,15.137,35.156
38.574,29.785,-69.336,17.09,20.508
36.133,33.691,41.016,17.578,49.316
34.668,37.109,258.301,18.066,37.598
38.086,37.109,75.684,14.16,-1.953
42.48,36.621,68.848,17.578,-4.395
42.969,37.109,171.875,23.438,30.273
36.621,39.062,220.703,28.32,12.695
32.227,37.598,315.43,21.973,35.645
25.391,36.133,203.125,14.648,59.082
27.832,36.621,131.836,12.207,47.852
34.668,34.668,133.789,15.137,38.086
26.855,32.715,152.344,18.555,-3.906
30.273,32.715,292.48,15.137,37.109
32.227,34.18,192.871,20.996,4.883
27.832,34.18,174.805,18.555,-18.066
35.645,37.109,43.945,19.531,8.789
38.574,37.598,-167.969,28.809,3.418
39.062,34.668,155.273,24.414,31.738
39.551,35.156,405.762,19.531,71.289
31.738,36.621,270.02,18.555,5.371
28.32,36.621,156.738,22.949,-38.574
30.762,34.18,193.848,23.438,25.879
34.18,30.762,326.172,22.461,98.633
28.32,29.785,221.68,21.484,73.73
25.391,26.367,153.809,16.602,-1.953
26.367,25.391,129.883,17.578,-38.574
27.832,29.297,182.129,20.02,7.324
28.809,29.297,223.145,15.137,52.246
30.273,26.367,134.766,20.508,17.09
29.297,26.367,218.262,12.207,-19.531
33.203,24.902,210.449,4.883,-0.488
32.715,24.414,14.16,11.719,25.391
26.855,29.785,231.445,14.16,72.266
40.039,27.832,377.441,15.137,61.523
39.551,30.273,273.438,17.578,34.668
27.832,33.203,219.238,20.02,54.688
33.691,32.227,146.484,18.555,16.113
32.715,31.738,168.945,24.902,5.371
30.273,32.227,132.324,25.879,14.16
36.621,31.738,129.883,19.043,33.691
43.457,31.738,124.023,18.066,23.926
39.551,32.715,-5.859,18.555,-10.254
36.621,31.25,135.742,15.137,9.277
36.133,32.227,387.207,18.555,20.996
28.809,34.668,356.445,17.578,54.199
40.039,36.621,300.293,18.066,65.43
50.781,34.668,200.195,21.973,24.414
40.039,32.715,261.23,25.391,35.645
33.691,34.18,297.852,21.484,58.105
44.922,35.645,192.871,14.648,13.184
43.945,34.668,160.156,15.625,-26.367
28.32,29.785,119.629,15.625,20.508
33.691,27.344,156.738,20.02,61.035
37.109,26.855,300.293,17.578,59.082
28.809,26.855,278.32,11.719,25.391
29.297,30.273,235.84,16.113,4.395
43.945,31.738,156.738,25.879,15.625
46.875,31.25,213.867,20.508,33.691
39.062,32.227,338.379,22.461,43.457
41.504,32.227,218.75,25.879,-0.488
41.016,28.809,183.594,17.09,-47.363
47.363,26.367,52.246,18.066,-46.387
51.27,25.391,26.855,19.043,-30.273
43.945,27.344,217.285,19.531,4.883
43.945,28.32,135.254,16.602,-3.418
53.223,31.25,220.215,14.16,-14.16
54.688,33.203,176.27,20.996,0.488
45.41,29.785,-20.996,25.391,-4.395
50.293,26.367,248.535,22.949,34.18
65.918,29.297,303.711,19.531,22.461
39.062,34.668,200.684,16.602,22.461
20.508,34.668,132.812,16.113,46.387
30.273,32.227,70.801,15.137,5.859
20.996,30.762,181.152,10.742,8.789
20.508,29.297,132.812,13.184,20.02
23.926,29.297,6.836,7.324,31.738
24.414,30.273,-43.945,1.465,26.367
25.879,31.738,-111.816,8.789,53.223
35.645,33.203,66.895,16.113,64.453
49.316,36.621,252.441,17.578,72.266
39.062,35.156,83.496,9.766,2.441
38.086,32.227,-76.172,7.324,-34.18
44.922,33.691,-29.785,18.555,14.16
31.25,32.715,159.668,21.484,80.078
27.344,28.809,80.078,12.695,72.266
36.133,29.785,-113.281,11.23,-29.297
33.203,31.738,-105.957,13.672,-27.832
25.391,28.32,-197.754,16.113,-37.109
33.203,24.414,-115.234,21.973,-11.23
35.645,26.855,49.316,19.531,36.621
35.156,27.832,7.324,6.348,79.59
38.574,28.32,9.766,7.812,90.82
45.41,31.25,-230.957,8.301,35.645
51.27,32.227,-227.539,8.789,43.945
53.223,31.25,48.34,11.23,49.316
48.828,26.855,-95.215,4.883,6.348
45.41,25.879,-150.879,4.883,-24.902
52.246,27.832,-58.105,8.789,17.09
58.105,29.785,9.766,9.766,49.316
37.109,28.32,-8.301,14.16,93.75
37.598,29.785,-90.332,15.137,74.707
52.246,33.203,-26.367,15.137,-13.672
39.551,29.297,-44.922,13.184,16.602
33.691,29.785,17.09,17.578,70.312
40.527,34.668,119.629,22.949,52.734
40.039,33.691,30.762,15.137,29.785
35.645,28.809,73.242,15.625,51.758
37.598,25.391,-68.359,19.531,16.602
40.527,25.391,-171.387,19.043,-7.324
52.246,27.344,97.656,9.277,-2.441
53.711,29.785,108.887,9.277,-0.488
54.688,30.273,30.273,9.766,5.371
54.199,25.391,39.062,14.648,39.551
40.039,27.832,143.555,24.414,63.477
35.156,33.691,316.406,17.578,78.613
42.969,31.738,238.281,18.066,62.5
50.293,29.297,170.41,23.438,25.879
36.621,27.344,127.93,20.508,24.902
56.641,30.273,17.578,20.02,62.988
59.57,30.273,245.605,22.461,125.977
45.898,26.855,325.195,24.414,97.656
43.945,29.785,183.105,26.855,10.742
35.156,33.691,199.219,27.832,26.367
32.227,33.691,163.574,32.715,68.359
40.527,30.273,147.461,35.156,38.574
51.758,31.738,138.184,31.738,4.395
49.316,33.203,214.355,21.973,31.25
41.016,33.203,360.84,13.672,44.434
47.363,35.156,143.066,16.602,33.691
48.34,34.668,120.117,17.578,50.293
43.457,34.18,334.473,15.137,-15.625
81.055,41.992,322.266,14.16,-40.039
71.777,43.457,303.711,21.484,-24.414
37.598,39.551,292.48,25.879,-1.953
46.387,38.086,356.934,23.926,38.574
45.898,35.156,275.879,30.273,47.852
53.223,33.691,186.523,28.32,60.059
57.129,37.598,314.453,25.879,32.715
42.48,39.062,147.461,32.715,13.184
33.691,35.645,68.359,34.18,15.625
37.598,38.086,379.395,28.809,46.875
48.828,40.039,369.141,28.809,72.754
41.992,36.621,294.922,29.297,64.453
38.086,33.203,159.18,32.715,36.133
42.48,32.227,212.891,40.039,78.125
37.598,32.227,320.312,29.785,69.824
31.738,31.738,224.609,12.207,53.223
36.133,29.297,125.977,13.184,44.434
43.457,31.25,16.113,20.02,6.348
49.316,32.715,-92.773,13.672,-15.625
34.668,31.738,195.801,18.066,13.184
29.785,32.227,411.133,27.344,38.086
21.484,30.273,351.562,22.949,46.387
14.648,33.203,254.883,22.461,57.617
22.461,32.715,219.727,26.855,35.645
35.156,28.32,321.777,23.926,33.691
40.039,29.297,226.562,23.438,1.465
22.949,28.809,185.059,18.066,-14.648
26.855,27.832,165.039,19.531,-4.395
21.973,27.344,90.332,24.902,-6.348
5.859,28.809,167.969,13.672,14.648
16.113,31.738,264.16,11.719,25.391
23.926,31.25,265.625,17.578,3.418
21.973,31.738,210.938,18.066,-41.992
16.602,33.203,36.133,27.344,-15.625
22.949,32.715,189.453,26.367,46.875
32.715,33.203,390.625,19.043,30.273
25.879,31.738,212.402,17.09,-22.949
31.25,30.762,155.273,15.137,-8.301
39.551,32.227,237.793,15.625,20.508
24.902,31.738,306.152,17.578,17.578
16.113,27.832,198.242,11.719,22.461
26.855,27.832,52.246,6.348,-42.969
30.762,33.691,195.801,16.602,-47.363
31.25,36.621,270.996,14.16,25.391
22.461,31.738,239.258,14.648,-20.996
10.742,31.738,287.109,20.508,-21.484
7.324,35.156,244.629,20.02,11.23
4.883,33.203,221.191,20.02,-8.301
0,33.203,174.805,19.043,13.672
-3.906,30.273,211.914,20.02,26.367
-3.906,27.832,281.738,16.602,6.348
-11.719,26.367,138.184,9.277,-30.273
-14.648,30.273,114.746,17.09,-26.855
-11.23,35.156,123.535,22.461,36.621
0,33.203,-24.902,14.16,41.504
-3.906,33.203,206.055,18.066,4.883
-6.836,35.645,404.297,19.043,-14.16
0.977,36.133,372.559,13.672,-0.488
1.465,32.227,322.754,25.879,31.25
1.953,29.785,345.215,28.32,65.43
3.418,28.809,393.555,18.555,77.637
2.93,30.273,297.852,17.09,56.152
-4.395,30.273,257.812,18.066,5.859
-2.93,27.344,204.59,20.02,-7.812
8.301,28.809,205.566,23.438,38.574
5.859,27.344,251.953,20.996,58.105
6.348,26.855,248.535,15.137,41.016
12.695,28.809,389.16,14.16,37.109
11.719,28.32,337.402,20.02,11.23
12.695,26.367,170.898,22.949,51.758
10.254,25.391,337.402,18.555,48.828
14.16,26.367,468.75,20.508,36.621
12.695,25.879,399.902,19.043,22.949
8.301,26.855,332.52,18.066,5.371
25.391,33.691,324.707,15.625,36.133
20.508,35.645,401.367,11.719,40.039
6.348,35.156,281.738,16.113,51.758
17.09,36.621,222.656,14.648,23.438
22.461,34.668,382.324,18.066,7.812
20.02,34.668,222.168,24.414,44.434
19.043,36.621,201.66,25.391,29.297
28.809,34.668,488.281,26.855,24.902
27.344,35.156,495.117,25.391,46.875
26.367,37.109,433.594,31.25,31.25
33.203,39.062,401.855,35.645,37.109
30.762,38.086,442.383,35.645,41.504
31.25,38.086,460.449,27.832,39.062
23.926,39.551,381.348,21.484,15.625
23.438,36.621,324.219,21.484,4.883
14.648,35.645,215.332,22.461,35.645
7.812,36.133,331.543,20.508,57.129
15.625,35.156,613.281,9.277,52.734
15.625,36.133,566.406,3.906,38.574
28.32,34.18,537.598,11.719,38.574
31.25,31.738,439.453,19.043,0
30.762,33.691,432.129,19.043,-6.836
32.227,32.715,528.809,15.625,-29.785
22.461,26.855,525.391,18.066,-20.996
24.414,31.738,583.496,23.926,50.293
30.273,37.109,532.715,24.414,60.059
34.668,35.645,456.055,25.391,20.996
35.156,33.691,507.812,25.879,30.273
30.762,29.297,544.434,21.484,39.062
26.367,29.297,626.953,20.996,11.23
21.973,28.32,543.945,26.367,0.488
22.461,28.809,543.457,28.32,6.836
24.414,31.25,632.324,23.926,0.488
27.832,33.203,586.426,20.508,6.348
35.645,34.668,633.789,20.996,-1.465
24.902,28.809,535.156,19.043,5.859
21.484,29.297,478.027,24.902,26.367
23.438,34.18,729.492,25.391,45.898
24.902,33.203,648.926,20.508,16.113
30.762,33.203,590.82,17.578,-11.719
28.32,34.668,762.207,19.043,49.316
32.227,34.18,590.82,22.461,85.938
27.344,31.738,664.062,14.16,50.293
14.648,30.273,815.918,9.277,36.621
15.137,32.715,711.426,12.207,15.137
19.531,34.668,637.207,19.043,-34.18
16.113,30.762,609.375,20.508,-45.41
22.949,29.785,735.352,20.996,11.23
34.668,33.691,757.324,20.508,55.176
29.785,33.691,624.023,16.602,46.875
27.344,33.691,543.945,22.949,22.461
33.691,30.762,429.688,27.344,26.367
36.133,27.832,550.293,20.02,25.391
40.039,31.738,803.711,22.461,37.598
38.574,30.273,679.688,25.391,-4.883
38.574,25.391,618.164,23.438,-56.152
39.062,27.832,668.945,23.438,19.043
37.109,29.297,691.895,26.367,29.785
38.086,29.785,690.918,26.855,29.297
31.25,32.715,621.582,19.531,33.203
31.738,31.738,586.426,17.578,-10.742
33.691,27.832,556.152,17.578,-22.461
28.32,26.855,568.848,15.137,28.809
34.18,29.785,581.543,17.09,50.293
32.227,31.25,534.668,15.625,4.883
27.832,32.715,712.402,12.207,47.852
29.297,33.691,625,18.555,85.938
40.039,36.621,476.074,27.344,74.219
37.109,37.109,666.992,24.902,21.973
32.227,32.227,701.172,20.996,33.691
44.922,33.691,671.387,26.367,46.875
40.039,32.227,579.102,28.32,10.254
33.203,32.227,620.605,24.902,41.992
38.086,34.668,665.039,25.391,28.809
35.645,33.691,497.07,26.367,18.066
34.668,33.203,498.047,21.484,-18.066
34.18,33.203,586.914,17.09,-5.371
43.457,33.203,517.09,18.555,53.223
44.922,33.203,640.625,20.508,60.547
31.738,31.25,726.074,20.996,63.965
29.785,29.297,690.918,18.066,13.672
27.344,29.297,674.805,20.996,44.922
31.738,29.297,647.461,21.973,53.711
28.809,29.297,699.219,10.254,14.16
32.715,32.227,668.945,5.859,-2.93
45.898,35.645,659.668,10.254,11.719
53.711,35.156,574.219,16.602,17.09
51.758,33.691,598.633,21.973,36.133
60.059,33.691,836.426,19.043,92.285
64.453,32.715,786.621,16.113,39.551
57.129,33.691,688.965,16.602,-17.09
52.734,33.203,732.422,20.996,-12.207
65.918,34.668,567.383,26.367,-1.953
67.871,34.668,644.531,27.832,42.48
44.434,31.25,910.645,28.809,89.844
42.969,32.715,851.074,32.227,74.219
44.922,33.203,773.438,27.832,25.391
52.734,35.156,797.852,26.855,69.336
51.758,37.109,729.98,25.879,46.387
37.109,34.668,728.516,18.555,41.016
40.039,33.203,810.547,17.578,78.613
48.34,32.227,800.781,15.625,-24.902
48.34,32.227,656.25,19.531,-19.043
52.246,28.809,606.445,24.414,-28.809
53.711,32.227,899.414,16.113,-31.738
48.828,39.551,991.211,9.766,78.125
44.922,35.156,938.965,13.184,77.148
47.852,30.273,805.176,17.09,12.695
49.316,29.297,818.359,19.531,23.438
49.316,28.809,948.242,15.137,62.988
45.898,34.668,770.02,7.324,18.066
51.27,40.527,737.305,15.625,-72.266
61.035,33.203,803.223,31.738,-56.152
38.574,28.32,781.25,13.672,1.465
21.484,29.785,975.586,-9.766,19.531
24.902,31.738,-993.652,-8.301,-4.395
24.414,29.785,988.281,0,10.742
22.949,27.344,910.156,-0.488,31.25
19.043,29.297,895.996,0.977,17.09
19.531,32.227,978.516,0.488,30.273
16.113,30.273,930.664,-5.371,48.828
18.555,29.297,909.668,0.977,31.25
26.855,29.785,812.5,2.441,18.555
31.25,30.273,747.559,3.418,1.465
35.156,34.18,923.828,7.324,12.695
32.227,33.691,-995.605,0.977,62.5
35.645,33.203,995.605,1.465,69.824
43.457,34.18,913.574,6.348,26.367
48.34,35.645,831.543,8.301,3.418
53.711,40.039,955.566,12.695,14.648
45.41,40.527,982.422,15.625,57.129
39.551,38.574,908.203,11.23,36.133
39.551,39.062,914.062,11.719,28.809
41.992,38.574,869.629,15.625,25.391
40.527,35.645,848.633,17.09,28.32
40.039,33.691,892.578,13.672,36.621
42.48,33.691,839.355,10.742,-13.672
41.504,30.273,891.113,14.648,-1.953
42.48,30.273,835.938,16.602,64.941
32.227,33.203,762.695,14.16,64.941
20.508,34.18,930.664,9.766,12.207
30.762,33.203,933.594,8.301,2.93
36.621,30.762,923.828,15.625,-18.555
27.344,30.762,900.879,17.09,8.301
24.414,33.203,879.395,20.508,-1.953
32.227,32.715,858.887,25.879,-5.859
41.992,33.203,721.191,25.391,-1.953
34.18,33.691,683.105,21.973,-20.02
23.926,33.203,719.238,20.996,-15.137
26.855,33.203,838.867,24.414,41.992
23.438,31.738,877.93,27.832,65.918
24.414,32.715,688.965,26.367,19.043
30.273,33.691,778.809,19.043,43.945
29.297,28.32,648.926,17.578,22.949
24.414,31.25,549.316,24.414,27.832
18.066,33.691,807.617,22.461,79.102
23.438,31.738,737.793,21.973,32.715
23.926,29.785,671.387,26.367,-24.902
18.066,28.809,552.246,26.367,-14.648
25.879,30.762,495.117,22.949,37.598
16.113,28.809,744.141,17.09,46.387
10.254,29.785,751.465,13.672,1.953
13.672,31.25,651.855,15.137,-54.688
14.16,27.832,588.379,20.02,-70.801
18.066,31.738,649.902,24.902,9.277
13.184,35.156,669.434,22.949,37.598
10.254,30.762,554.199,17.578,-8.789
14.648,32.227,603.516,20.02,-15.625
17.578,33.691,625.488,22.461,44.922
19.531,32.227,575.684,21.973,54.199
23.438,35.156,495.605,21.484,21.484
24.414,35.645,518.066,18.066,72.754
23.926,36.621,566.406,17.09,25.391
20.996,38.086,569.824,20.02,-6.836
27.344,36.133,352.051,23.438,27.832
17.09,33.203,383.301,26.367,9.277
9.277,36.133,624.023,13.672,22.461
24.414,37.598,546.875,11.23,16.113
32.227,34.18,527.832,23.926,22.949
29.297,36.621,437.012,24.902,50.781
29.785,38.086,443.359,20.996,79.59
20.996,34.668,495.117,16.602,76.66
21.484,33.203,366.211,16.602,73.73
34.18,36.133,340.82,23.926,64.941
37.598,36.621,271.484,26.367,82.52
34.18,32.715,289.551,21.484,49.316
30.762,31.738,517.578,15.625,30.762
35.645,34.18,486.816,15.137,39.062
39.551,36.621,464.844,19.531,40.039
40.039,39.062,446.289,22.949,65.918
41.992,38.086,437.012,21.484,40.527
53.711,41.992,480.469,33.203,56.641
46.875,38.086,432.129,35.645,73.242
16.113,25.391,458.008,13.672,62.012
17.09,21.484,246.094,8.789,-7.812
31.25,30.762,211.914,17.09,24.414
12.695,30.762,505.859,11.23,15.137
9.766,29.785,534.668,3.906,-34.668
20.996,34.18,537.598,-2.441,2.93
9.277,32.227,490.234,-11.719,26.855
-2.441,28.809,451.66,-5.371,-3.418
5.859,27.344,510.742,2.441,-20.996
10.254,28.32,487.793,-4.395,25.391
9.766,26.855,479.492,-1.953,23.926
17.578,26.367,467.285,7.324,44.434
14.16,30.273,473.633,17.578,56.641
11.719,37.598,439.941,16.113,55.664
31.738,37.109,404.297,10.742,55.664
35.645,37.109,483.398,18.066,0.977
25.879,39.551,390.137,16.113,-28.32
31.25,34.668,430.664,16.113,1.953
37.598,29.297,597.168,22.461,27.832
38.574,29.297,508.301,20.508,6.836
38.086,30.273,494.629,19.043,29.785
38.086,25.391,466.309,19.531,4.883
41.016,23.926,329.59,10.742,51.758
40.527,32.715,441.406,6.836,84.473
28.32,38.574,489.746,4.395,17.09
23.926,34.18,308.105,5.859,11.719
32.715,32.715,361.816,16.602,36.621
23.438,39.062,294.434,18.066,69.336
23.926,33.691,258.301,12.207,18.066
33.691,26.855,461.426,10.254,20.508
30.762,39.551,304.199,8.789,-3.906
33.691,44.922,307.129,17.578,-4.883
31.738,41.504,362.305,20.508,39.062
31.25,37.598,363.281,13.184,65.918
31.25,34.668,311.523,8.789,60.547
25.879,35.156,166.504,7.812,-24.414
31.25,34.18,249.512,14.16,0
36.133,33.203,72.266,20.508,20.996
47.363,28.809,48.34,22.949,1.465
44.922,30.273,317.383,18.555,19.043
33.203,37.109,278.809,14.16,18.555
29.785,35.156,310.547,16.602,45.41
23.926,33.691,250.977,17.09,58.105
30.273,35.645,257.812,15.625,46.387
39.062,35.156,308.594,16.113,39.551
44.922,33.203,215.82,14.648,13.672
45.898,35.645,278.809,16.602,-24.414
48.34,36.621,323.242,19.531,-3.906
45.898,33.203,383.789,14.648,40.039
32.227,29.297,375.977,11.719,53.223
33.691,29.785,300.781,8.301,32.227
35.156,31.738,497.559,5.371,13.672
39.062,32.715,522.461,8.301,30.762
44.434,33.691,380.371,8.301,60.059
42.969,31.25,571.777,7.324,24.902
34.668,31.25,644.043,9.766,6.348
29.297,27.832,649.902,14.16,22.949
40.527,27.832,691.895,20.508,57.129
41.504,31.25,689.453,26.855,99.609
41.504,29.785,687.988,25.879,83.984
45.41,29.785,665.527,19.043,59.57
54.199,30.762,600.586,19.043,0
57.129,33.203,599.121,21.973,-35.645
47.363,33.203,604.004,20.02,34.668
47.363,29.785,711.426,16.602,8.301
50.781,29.297,845.703,12.695,-46.875
47.363,30.273,836.426,10.254,-5.859
45.41,30.273,832.52,11.719,31.25
55.176,31.25,763.672,11.719,33.203
64.453,31.25,763.184,13.184,-6.836
57.129,32.715,773.926,11.23,15.137
44.922,30.273,751.465,10.254,44.434
49.805,28.32,722.168,15.137,9.766
45.898,29.297,626.465,16.602,21.973
27.344,28.809,597.168,15.137,23.926
26.367,29.297,700.684,14.648,1.465
28.32,30.273,696.289,12.207,-41.016
31.738,28.32,694.336,13.184,-44.434
32.715,29.785,655.273,17.09,5.859
39.551,30.762,647.949,17.09,3.906
41.016,28.809,673.828,17.578,-10.254
41.992,28.32,631.836,19.043,11.719
39.062,28.32,699.219,20.996,72.266
33.203,29.785,549.805,25.879,71.777
42.969,34.18,457.52,28.809,-8.789
48.34,36.133,518.555,23.438,3.418
46.875,35.156,512.207,15.137,34.18
43.945,36.133,640.625,17.09,-3.906
43.945,33.203,494.141,19.531,-13.184
40.039,31.25,416.992,20.02,6.836
34.18,31.738,689.453,16.113,32.227
42.969,31.25,676.27,9.766,10.254
40.039,31.25,634.766,13.184,1.953
49.805,29.297,589.355,21.484,24.414
44.922,28.809,584.473,25.879,59.57
20.508,29.785,616.211,20.02,35.156
16.602,28.809,561.523,17.09,30.762
24.902,30.273,503.418,19.043,53.223
32.227,28.809,467.285,20.508,32.227
31.738,26.367,536.133,24.414,42.48
30.762,30.762,611.816,25.879,30.273
30.273,33.691,573.73,22.949,18.066
23.926,33.203,501.953,23.438,3.418
25.391,35.645,461.914,21.973,1.465
30.273,34.18,506.836,19.531,46.875
28.32,34.18,595.703,20.996,72.754
20.02,39.062,513.184,20.996,32.715
22.461,37.598,471.191,15.625,4.883
38.574,32.227,486.328,14.648,4.395
40.527,35.156,400.391,22.461,32.227
27.344,35.645,404.785,21.973,31.25
18.066,32.715,497.07,17.578,41.992
23.438,34.668,493.164,15.625,39.551
28.32,33.203,529.297,17.09,36.621
15.625,28.32,290.039,20.996,24.902
23.926,26.855,207.52,22.949,9.766
27.832,30.273,532.227,19.043,44.434
10.254,31.25,458.496,11.719,17.09
5.859,30.762,427.734,11.719,-30.762
11.23,28.809,487.305,15.137,-3.418
11.23,30.762,493.652,13.184,29.785
12.207,33.691,328.613,13.184,1.465
21.973,28.32,240.723,12.207,-49.805
19.043,29.785,488.281,13.184,-22.949
13.672,30.273,340.82,16.113,17.09
13.672,32.227,244.141,12.207,62.988
15.625,35.645,425.293,14.648,19.531
20.996,34.18,417.48,22.461,23.438
18.555,37.109,405.273,22.949,42.48
16.113,39.062,291.504,18.066,-9.277
7.812,36.621,327.637,12.207,30.762
1.953,35.156,336.426,12.207,76.66
6.348,39.062,201.172,9.766,36.621
9.766,40.527,239.746,13.672,6.836
13.184,37.109,199.219,18.555,22.461
15.625,39.062,130.859,20.02,1.953
11.719,39.551,336.914,18.555,-11.23
7.324,36.621,405.273,14.648,6.836
13.184,36.133,392.578,11.23,41.992
19.531,37.109,307.129,16.113,39.062
23.926,37.109,275.879,27.344,64.453
26.855,33.203,319.824,29.785,60.547
32.227,35.156,239.258,26.367,29.785
23.438,32.227,262.695,22.461,44.922
22.949,31.25,239.746,21.484,51.758
41.016,35.156,153.32,24.902,46.387
40.039,36.621,134.277,23.926,9.766
26.855,35.645,122.559,22.461,-15.625
29.785,33.691,257.324,30.273,-22.461
34.18,35.645,368.652,35.645,11.23
36.133,33.203,149.414,28.32,62.988
41.016,30.273,141.113,32.715,5.859
38.574,32.227,322.266,30.273,-51.27
38.574,36.621,366.699,21.973,21.973
48.828,39.551,356.445,31.738,50.293
49.316,38.086,318.359,35.156,50.781
47.363,39.551,423.34,35.645,124.512
49.805,41.016,300.781,26.855,112.793
45.898,37.109,199.707,21.973,36.133
48.34,37.598,407.227,25.879,40.039
43.457,39.062,413.086,24.414,57.129
43.457,41.504,430.176,19.043,55.176
55.176,41.016,450.684,13.184,-14.16
56.152,41.016,381.348,13.184,-24.414
57.617,43.457,527.832,21.484,45.898
55.664,42.969,380.859,23.926,14.648
43.457,41.504,363.281,21.484,19.531
45.41,42.48,620.117,22.461,45.41
52.734,42.969,547.363,18.066,25.879
54.199,41.504,494.141,15.137,38.574
58.594,40.039,499.023,18.066,68.359
58.594,42.969,591.797,20.02,49.805
56.641,40.039,637.207,20.508,35.156
55.664,38.086,509.766,20.996,1.953
61.523,44.922,577.148,25.391,17.09
59.57,44.434,504.883,24.902,67.383
50.781,44.434,432.617,28.32,64.941
47.363,43.945,616.699,23.438,38.086
41.016,40.039,589.844,20.02,41.016
38.574,42.969,554.688,34.18,30.273
42.48,47.363,541.016,39.551,45.898
42.969,46.875,471.191,28.32,68.848
42.48,47.363,463.379,25.879,29.785
49.316,47.852,454.59,29.297,-13.184
48.828,43.457,519.043,28.32,14.16
47.852,41.504,497.559,34.18,53.711
52.246,41.016,396.973,38.086,74.707
52.734,40.527,471.191,34.668,36.621
50.781,41.504,462.402,32.227,23.926
51.27,43.457,394.531,35.156,66.895
53.711,45.41,352.539,37.598,34.18
56.152,47.363,389.16,41.992,55.176
57.617,49.316,448.73,39.551,70.312
51.758,46.875,289.062,31.25,64.453
56.641,46.387,185.059,32.715,26.367
61.523,46.387,296.875,33.691,-41.504
49.805,50.293,343.75,37.598,-28.32
43.457,46.387,408.691,41.016,30.762
43.457,41.504,309.082,41.016,20.996
45.898,48.34,173.828,39.551,-34.668
52.246,47.852,263.184,37.109,14.648
54.688,41.504,214.844,41.992,19.043
54.688,41.504,212.402,44.434,-2.441
57.617,42.969,202.637,41.992,15.137
59.082,46.875,47.852,41.504,11.23
52.734,48.34,45.41,48.34,-10.742
56.152,45.898,13.184,48.34,-16.113
63.965,46.387,-4.883,39.062,44.922
60.059,42.48,216.309,36.621,61.523
54.688,41.992,241.211,42.969,18.066
56.641,47.852,172.363,44.434,-1.953
58.105,49.805,178.711,45.41,26.367
55.664,46.387,163.574,42.48,31.25
50.293,47.852,71.777,38.574,-17.578
46.875,44.922,3.418,40.039,7.324
48.34,41.016,50.781,31.25,23.438
50.293,40.039,44.434,29.785,12.207
52.246,41.504,-2.441,32.715,16.602
49.316,41.992,-84.473,20.508,-46.387
43.457,39.551,-139.16,9.766,-59.082
31.738,40.527,112.793,14.16,23.438
21.973,39.062,137.695,11.23,34.18
14.648,38.086,-74.707,-1.465,-1.953
1.953,39.551,100.098,-8.789,17.09
-6.348,38.086,87.891,-18.555,-6.348
-19.531,36.133,23.926,-29.297,-21.484
-22.461,35.156,35.156,-33.203,-4.395
-11.23,35.156,64.941,-26.855,20.02
-20.996,33.203,156.738,-27.832,92.773
-42.969,29.785,-111.816,-46.387,31.25
-40.039,34.668,-94.727,-54.688,27.344
-34.668,39.062,155.762,-50.293,94.727
-33.691,36.621,-56.641,-52.734,38.086
-39.551,37.598,-64.453,-62.988,6.348
-45.41,37.598,137.207,-61.035,19.043
-42.48,35.645,130.859,-55.176,-3.418
-39.551,36.133,155.273,-49.805,6.836
-35.645,35.645,212.891,-43.945,79.102
-37.109,35.156,221.68,-41.016,91.797
-43.457,35.645,98.633,-39.551,62.012
-39.551,34.18,29.785,-39.062,18.555
-25.391,36.621,52.246,-32.715,31.25
-24.414,37.109,103.027,-32.227,50.781
-29.785,34.18,236.816,-38.574,42.48
-32.715,38.574,186.035,-42.969,17.09
-36.133,39.551,116.211,-42.969,20.508
-25.391,40.527,252.93,-28.32,60.059
-11.719,40.039,103.516,-14.16,46.875
-2.93,35.156,99.609,-6.348,58.105
3.906,34.668,267.578,1.465,56.641
13.672,34.18,177.246,11.719,38.574
26.367,32.227,235.84,24.902,54.688
44.434,24.414,234.375,41.992,28.809
55.664,20.508,169.434,44.434,12.207
47.363,30.273,82.52,54.199,-47.852
60.059,34.668,162.109,72.266,-37.598
82.031,30.273,328.125,75.684,35.156
86.914,26.367,226.074,84.961,19.531
89.355,25.391,217.773,88.379,22.949
92.285,22.949,228.027,86.426,-9.766
92.773,22.949,112.793,87.402,-56.641
99.121,24.902,118.652,89.844,-27.344
101.562,23.926,78.125,100.098,47.852
106.445,22.949,140.625,100.586,43.945
100.098,24.414,204.102,97.656,2.441
88.379,24.414,60.059,95.215,15.137
98.145,21.973,77.637,92.773,62.5
97.656,23.438,66.895,95.703,38.574
84.961,24.414,127.441,92.285,15.137
89.355,23.438,298.828,84.473,63.965
88.867,22.461,234.863,79.59,100.586
84.961,20.996,117.676,80.078,42.969
89.355,18.555,113.281,88.379,-20.996
84.473,15.137,-8.789,86.426,31.738
75.195,16.602,63.477,83.984,61.523
81.543,22.461,337.402,90.332,69.336
92.773,23.438,267.578,92.285,55.176
91.797,19.043,178.223,96.191,3.906
84.961,17.09,74.219,91.309,-18.555
80.566,16.602,253.906,84.961,39.062
71.777,17.578,416.016,81.543,62.988
68.848,18.066,333.984,83.496,42.48
69.336,18.066,312.5,85.938,27.344
63.477,14.648,255.371,83.008,18.555
65.918,12.695,248.535,81.055,9.766
61.035,15.625,198.73,76.172,-15.625
60.547,16.602,207.031,78.613,-5.859
70.801,18.066,259.277,82.52,15.137
61.523,15.625,208.008,80.566,32.715
60.547,15.625,110.84,77.148,31.738
65.918,16.113,-12.207,77.148,-39.551
69.824,17.09,76.66,73.73,-65.43
67.871,20.508,373.047,68.848,25.879
55.664,18.555,128.906,71.289,27.344
62.988,13.184,-57.129,71.777,-9.277
69.824,13.672,216.797,71.289,6.348
71.777,24.902,244.629,68.359,0.488
62.988,25.879,262.207,67.871,36.621
69.824,20.996,185.547,72.266,69.824
73.73,23.926,126.465,74.219,80.566
59.57,25.391,79.59,69.824,7.324
62.5,20.996,6.348,74.707,16.602
66.895,18.555,105.957,76.66,25.391
68.359,20.508,89.355,72.754,-2.441
71.289,17.09,-52.734,69.336,20.996
62.5,14.16,93.262,68.359,32.227
64.941,15.137,231.445,67.383,41.016
75.195,16.113,268.555,66.406,25.879
65.43,19.531,187.988,75.195,62.012
58.594,20.02,63.965,76.172,59.57
58.594,19.531,16.113,66.895,-31.25
60.059,16.113,57.617,62.988,-13.184
61.035,10.254,124.512,67.871,4.883
73.73,10.254,18.555,76.172,14.648
75.195,15.137,-178.223,75.684,39.062
80.566,17.578,-18.066,67.871,20.02
92.773,16.113,150.879,69.336,-21.484
82.031,14.648,162.109,73.73,-5.859
80.078,13.672,116.699,74.707,25.391
73.242,12.695,-91.797,74.707,12.695
66.895,15.137,-107.91,65.918,5.371
70.801,12.695,51.27,66.895,35.156
70.801,9.277,136.719,71.289,83.984
72.266,10.742,7.812,73.73,31.738
66.895,8.789,-165.039,73.242,0
63.965,11.23,-273.926,73.242,-38.086
66.895,18.555,-201.172,69.824,-75.195
71.289,18.066,68.359,64.941,-3.906
65.918,10.254,137.695,62.012,36.621
57.129,11.23,-213.379,63.965,62.5
54.688,14.648,-319.824,62.988,60.547
57.617,13.672,-7.324,62.5,16.602
53.711,7.324,86.914,58.105,17.578
52.246,9.766,57.129,59.57,64.941
54.688,13.672,-171.875,58.594,49.316
46.875,5.371,-276.855,54.688,-37.109
56.152,3.418,-164.062,59.082,-65.43
59.082,5.371,-102.051,56.152,30.273
45.898,4.883,-37.598,57.129,69.336
40.527,2.93,-203.125,57.617,67.383
50.293,6.348,-429.688,54.688,-1.465
57.129,9.277,-134.277,57.617,-25.879
59.57,8.789,38.574,61.523,8.301
56.641,6.348,-17.578,58.105,-4.395
57.617,2.441,-196.289,52.246,2.93
59.082,1.953,-261.23,52.734,29.785
53.711,2.93,-157.227,52.734,40.527
53.223,7.324,-76.66,57.617,55.664
55.176,5.371,-94.238,60.547,49.316
67.383,3.906,-331.055,60.059,25.391
56.641,3.906,-340.82,57.617,23.926
46.387,2.93,-117.188,57.129,12.695
66.406,6.836,-42.48,54.688,55.176
63.965,8.301,-29.297,54.199,51.27
61.523,9.766,-111.816,61.035,51.758
61.035,12.695,-307.617,60.547,32.227
41.504,9.277,-194.336,46.875,1.953
42.969,3.418,-92.285,40.527,55.664
51.27,3.906,-145.508,42.48,43.457
48.34,1.953,-151.855,41.992,38.574
46.387,3.906,-203.125,41.504,35.645
46.387,1.465,-294.922,38.086,-1.465
41.992,-3.418,-315.918,34.668,31.738
40.039,2.93,-241.211,36.621,51.27
39.551,6.836,-115.723,33.691,41.016
30.273,5.371,-307.617,26.855,3.906
21.973,3.418,-355.469,27.344,-26.367
9.277,3.418,-170.898,33.203,2.441
5.859,1.953,-209.473,42.969,34.18
14.648,2.441,-174.316,50.781,19.531
18.555,5.371,-158.203,41.016,0
17.09,3.906,-140.625,38.086,18.066
21.484,2.441,-270.996,37.109,12.207
27.344,7.324,-453.613,34.668,2.441
30.273,6.836,-212.891,35.645,46.875
34.18,4.395,-157.227,41.992,53.711
35.156,7.324,-241.699,38.574,27.344
41.016,4.883,-192.871,26.367,15.625
35.645,3.906,-275.391,31.738,28.809
37.598,6.836,-121.094,36.133,30.762
46.387,6.348,15.625,33.203,16.602
37.598,0.488,74.707,40.527,23.926
34.18,-5.371,-87.891,39.062,3.418
41.504,-1.953,-253.418,41.016,-30.273
48.34,2.93,-83.496,41.992,-13.184
44.434,0.977,-25.879,44.434,46.387
41.504,-0.488,-92.773,41.016,46.387
37.598,-0.977,-11.23,32.227,-13.184
46.387,-0.488,-59.57,39.062,-9.277
51.758,-2.93,38.086,37.109,44.434
47.852,-0.977,161.133,33.691,75.195
49.316,3.906,148.438,35.156,59.57
38.086,5.371,15.625,35.645,54.688
40.527,8.301,-114.746,36.133,56.152
43.945,10.742,-25.391,37.598,16.113
44.434,8.301,92.773,34.18,5.859
47.852,4.395,159.668,35.156,24.902
51.27,4.883,5.371,30.762,17.578
49.316,2.441,-143.066,22.461,42.969
52.246,0.488,17.578,25.391,28.32
64.941,2.441,160.645,32.227,-8.301
64.453,4.883,55.664,33.203,23.926
54.688,6.836,50.293,24.414,-1.465
53.223,9.766,54.688,23.926,-18.066
52.734,9.277,45.41,31.738,27.832
61.035,12.695,215.82,38.574,62.012
64.941,15.137,140.625,40.039,5.371
57.129,11.719,83.984,35.645,7.324
61.035,15.625,23.926,31.25,31.25
58.594,12.695,-130.371,32.715,-2.93
52.246,8.301,52.734,33.203,16.113
53.223,10.742,289.551,30.273,75.684
46.875,9.277,239.746,24.414,72.266
40.039,7.324,-51.27,24.414,-32.227
59.082,9.277,-128.906,31.738,-31.738
64.941,10.254,135.254,30.273,39.062
63.477,7.324,80.566,34.668,33.691
66.895,8.789,-28.809,35.645,-18.555
56.152,11.23,24.414,31.25,-14.648
54.688,8.301,-44.922,32.715,21.484
65.43,7.812,106.934,33.203,39.551
69.336,7.324,168.457,28.809,36.621
62.012,6.836,72.754,26.855,14.16
56.152,7.812,36.133,18.066,20.02
60.059,8.301,-2.441,18.066,25.879
67.871,5.859,127.93,24.414,23.926
64.941,4.395,256.836,20.996,66.406
63.477,5.371,250.488,17.578,56.641
60.059,6.836,122.07,14.648,-17.09
54.199,6.348,-7.812,16.602,-12.207
62.988,8.301,158.203,20.508,14.16
76.172,10.254,266.113,25.879,9.277
79.102,6.348,312.012,25.391,31.738
71.777,6.348,182.129,22.949,38.574
64.453,6.836,-14.16,25.879,-10.742
73.242,7.324,157.227,33.203,-36.133
80.078,5.859,381.836,30.762,18.555
75.195,2.441,205.566,38.086,7.324
74.707,5.859,187.5,41.016,2.441
76.172,8.789,302.734,26.367,22.461
83.496,9.277,305.176,28.809,12.207
95.703,9.766,447.754,42.969,75.684
96.68,9.766,432.129,42.48,86.426
83.984,9.277,293.457,32.715,9.766
77.148,8.301,150.391,25.391,13.184
91.797,7.812,132.812,21.973,46.875
93.75,6.348,284.668,26.855,59.57
83.496,8.789,234.375,22.461,7.812
80.566,11.719,303.223,10.742,11.719
71.777,10.742,337.891,9.766,21.484
68.359,6.348,247.07,12.207,2.93
78.613,2.93,488.77,20.508,60.059
87.402,0,520.02,24.902,41.016
80.566,-1.465,496.582,21.484,66.406
71.289,-2.441,370.117,25.391,69.336
61.035,-4.395,258.789,35.156,-31.738
63.965,-3.906,443.848,37.598,2.441
61.523,-0.488,457.52,35.156,91.309
56.152,2.441,398.926,37.109,61.035
63.477,4.395,463.379,32.715,34.668
62.012,3.418,442.871,19.043,27.344
52.734,1.953,495.605,22.949,23.438
56.152,-0.488,446.777,39.062,33.203
63.965,1.953,406.738,31.25,-9.277
53.711,4.395,440.43,25.391,7.812
52.246,2.93,455.078,27.832,30.762
58.105,4.395,562.012,32.715,24.902
63.477,5.371,437.5,33.691,50.293
67.383,3.906,370.605,29.297,29.785
67.871,5.859,404.785,27.832,6.348
66.895,5.859,385.742,29.785,-9.277
75.195,2.93,572.754,39.062,1.953
73.73,0.977,473.145,37.109,9.766
72.266,0,406.738,28.32,39.062
70.801,0.977,472.656,18.066,-3.906
65.43,3.418,478.516,27.344,2.441
73.242,3.906,577.637,42.48,79.59
67.383,9.277,423.828,42.48,59.082
62.012,19.531,183.105,38.086,39.551
63.965,20.02,350.098,24.902,23.438
66.895,19.531,523.926,26.855,17.578
62.012,19.531,460.938,30.273,13.184
63.477,18.555,446.289,31.25,77.637
70.312,16.602,289.062,26.367,75.684
59.57,21.973,392.09,24.414,27.344
48.828,22.949,565.43,32.227,44.434
49.316,21.484,558.594,27.832,62.012
62.012,23.926,453.125,18.555,52.246
62.988,20.996,371.582,21.973,40.527
58.594,20.508,479.98,20.996,88.867
66.895,20.508,387.207,17.09,38.574
78.125,19.531,363.281,20.02,-16.602
74.707,20.02,448.242,17.09,38.574
61.523,19.531,341.797,17.09,67.383
59.082,21.484,282.227,17.09,47.852
64.453,21.973,314.453,6.836,-46.875
66.895,22.949,421.875,17.09,-43.457
62.012,20.996,546.875,27.344,45.898
65.43,20.02,335.938,19.531,24.902
72.754,20.02,358.398,25.879,39.062
68.848,15.137,500.977,24.414,32.715
61.523,9.277,458.984,13.672,-3.418
56.641,7.324,526.367,20.508,21.973
57.617,5.859,455.566,27.832,43.457
46.875,4.395,421.875,19.043,13.672
43.945,5.859,361.328,14.648,-15.625
49.805,8.789,402.344,11.23,4.883
54.688,13.672,598.145,10.742,49.316
53.223,11.719,409.18,16.602,54.199
48.34,13.184,309.57,9.766,39.551
44.434,13.672,524.902,13.184,2.93
60.059,12.207,581.543,22.949,-20.02
62.988,12.207,652.344,15.137,64.941
60.547,12.207,563.965,19.531,68.848
61.523,12.695,453.125,35.156,5.371
65.918,14.16,477.051,20.996,-8.789
65.43,18.555,465.332,15.137,-4.395
75.684,17.09,448.242,26.855,-13.672
86.914,20.02,434.57,21.484,20.508
64.453,18.555,415.039,20.996,41.992
60.547,14.16,556.641,21.973,-13.672
72.266,18.066,690.43,22.461,47.363
65.918,20.02,631.836,27.344,66.406
62.5,18.066,592.285,28.32,21.484
75.195,20.508,672.363,26.367,93.262
62.988,21.973,639.648,17.09,65.918
65.43,25.391,574.707,26.367,30.762
60.059,24.414,666.016,18.066,47.852
32.227,19.043,668.457,5.371,29.785
70.312,20.508,566.895,41.992,-0.977
101.562,24.414,557.129,37.598,-6.836
73.73,22.949,653.32,30.762,37.109
56.152,21.973,796.875,42.48,24.902
60.547,22.461,830.078,36.621,9.766
59.57,20.996,750,32.227,22.949
59.082,24.902,775.879,29.297,8.301
63.477,30.762,729.004,26.855,29.297
58.105,27.344,714.844,35.156,45.898
56.152,23.926,899.414,28.809,63.965
68.848,28.809,721.68,16.113,90.332
67.383,28.809,661.133,16.602,80.566
71.777,28.809,740.234,18.555,77.637
78.125,26.367,633.789,26.367,23.926
75.684,27.344,821.289,36.133,6.348
72.266,23.438,722.168,39.551,14.648
73.73,25.391,653.32,37.598,54.199
69.336,28.809,806.641,25.391,2.93
74.219,27.344,792.48,25.391,-31.25
57.617,27.344,841.309,14.648,21.484
61.523,29.297,763.184,8.789,2.441
73.73,29.297,760.742,23.438,48.34
68.848,31.738,666.992,26.855,26.855
62.988,29.297,657.227,26.855,-20.508
51.758,27.832,764.16,27.832,17.09
55.664,36.621,649.902,35.645,24.414
52.246,40.039,647.461,48.34,33.691
65.918,40.527,854.492,37.109,25.391
68.359,38.574,885.742,7.812,14.648
72.266,39.062,848.145,33.203,-23.438
94.238,42.48,779.297,62.012,-36.133
72.266,41.504,786.133,37.598,2.441
64.453,41.992,815.43,22.949,-2.441
77.637,45.898,755.371,39.551,-44.922
99.609,45.898,853.516,47.852,-11.23
118.652,44.922,811.035,46.875,32.715
102.051,46.387,660.645,44.922,22.461
86.914,44.434,703.125,41.992,29.297
84.961,45.41,785.156,34.668,37.598
96.191,46.387,927.246,44.922,51.758
92.285,45.41,862.793,31.25,41.016
78.613,33.203,600.586,-6.836,35.645
68.359,24.902,731.934,13.184,32.227
67.871,18.066,871.094,17.09,-1.953
73.242,16.113,862.793,16.602,4.883
66.895,16.602,869.629,25.391,75.684
47.363,-0.977,755.371,-9.277,64.941
70.312,-0.977,757.812,-12.207,20.02
139.648,9.766,681.641,39.062,19.531
117.188,26.367,693.848,63.965,-10.742
84.473,26.367,916.016,56.152,39.062
102.051,-7.812,669.434,38.086,56.641
106.934,-0.488,603.516,-4.395,12.207
82.52,0.977,849.609,-25.391,-5.859
104.98,-3.906,818.848,12.207,-20.996
106.445,5.859,839.355,27.832,16.602
113.281,1.953,787.109,13.184,35.645
116.211,-1.953,753.418,-6.836,33.203
106.445,1.465,740.234,-15.137,33.203
128.906,16.113,717.285,-6.836,-3.418
94.727,17.578,687.012,8.301,-5.859
109.375,5.371,659.18,27.344,15.625
134.277,11.719,762.695,36.133,17.09
122.07,15.625,836.914,43.945,50.293
122.559,16.602,827.148,35.645,63.477
127.93,17.09,768.066,32.715,37.598
114.258,16.113,645.508,19.531,44.434
106.445,16.602,724.609,3.906,67.871
101.562,13.672,784.668,20.508,57.129
98.145,20.508,723.145,16.113,32.227
104.98,24.902,773.926,14.16,16.113
100.586,19.043,698.73,27.832,34.18
92.285,22.461,607.91,11.23,60.059
87.402,21.484,668.457,19.531,43.457
97.656,21.484,726.074,34.18,0.488
101.074,25.391,854.492,24.414,21.484
108.887,32.715,787.598,33.691,62.012
92.285,24.902,443.359,18.555,12.207
57.617,17.09,586.914,-8.789,-41.016
96.191,25.391,892.578,30.762,-7.324
102.051,24.902,864.258,49.316,14.648
101.074,29.785,814.453,55.176,23.438
75.684,36.621,729.492,34.668,-27.344
55.176,32.227,797.363,17.09,-3.906
92.285,25.879,742.676,61.523,67.871
98.633,30.273,759.277,72.754,28.32
69.824,23.438,906.738,27.832,24.902
67.871,20.02,729.98,8.789,91.797
90.332,34.668,716.797,49.805,11.719
84.961,37.109,925.781,59.57,-22.461
68.848,32.715,967.773,42.48,37.109
54.688,40.039,942.871,37.598,41.992
82.031,43.945,887.207,44.434,66.895
86.914,38.086,889.16,42.48,47.363
65.918,30.273,852.051,37.598,22.461
70.312,31.738,898.926,33.203,31.25
38.574,27.344,919.434,6.348,6.836
26.367,31.25,760.742,15.137,-2.441
67.871,34.668,831.055,46.875,14.16
74.707,27.832,-983.398,45.898,30.762
68.359,34.18,996.094,26.367,-29.785
66.406,25.391,996.582,37.109,-21.973
60.547,30.273,996.094,56.152,35.156
48.34,36.621,999.023,47.852,48.828
62.988,31.25,-999.512,43.457,54.199
62.988,26.855,952.148,33.203,-25.879
62.988,29.297,970.215,32.227,-63.477
40.527,31.25,922.852,23.438,-22.949
12.207,23.926,816.895,24.414,-22.461
54.688,22.461,837.891,22.461,-29.785
67.383,32.227,863.281,10.254,-44.922
37.109,29.297,-994.629,12.695,-16.602
20.508,16.602,887.207,-3.418,40.527
35.156,27.832,670.898,36.621,29.785
46.875,32.227,849.609,57.129,16.113
61.035,27.344,914.551,29.785,61.523
42.48,29.785,844.238,15.137,59.57
30.273,38.086,698.242,49.316,27.344
55.176,22.461,612.793,43.945,-4.395
65.43,21.973,666.016,34.668,6.348
52.246,25.879,572.266,50.293,19.531
39.551,15.625,585.938,23.438,21.484
39.062,20.508,592.285,23.438,14.648
29.297,21.973,482.91,28.809,-45.898
31.25,24.414,575.684,13.184,-41.016
41.016,31.738,641.113,35.156,-30.273
23.926,26.367,646.973,46.875,-31.738
15.137,23.926,663.086,51.27,88.379
21.484,26.367,437.988,53.223,124.023
31.25,26.367,467.285,16.602,66.406
39.062,36.621,605.957,12.207,84.473
15.137,19.043,544.922,12.695,54.199
12.695,15.137,479.98,21.484,72.266
29.785,38.086,249.023,33.691,48.828
42.969,39.551,376.465,33.691,45.898
43.945,32.715,624.512,34.18,109.375
38.086,33.203,543.945,15.625,93.262
44.922,37.598,494.141,44.434,88.867
28.32,28.809,385.254,67.383,85.449
44.434,31.738,390.137,49.316,89.844
59.57,34.18,371.094,58.594,54.688
46.387,35.645,338.379,57.129,9.277
45.898,34.18,395.996,39.551,26.367
45.898,34.18,318.359,38.086,7.324
35.156,35.645,213.379,44.434,4.883
36.133,39.551,232.91,28.32,0.977
42.48,40.039,343.75,37.109,-19.531
13.184,26.367,473.633,61.035,31.25
33.691,36.133,210.449,57.129,6.348
39.551,36.621,61.035,16.602,-51.27
-2.441,14.16,373.047,7.812,-9.277
18.555,23.926,436.035,42.969,30.762
31.25,35.156,356.934,39.062,23.926
23.438,35.156,275.879,49.316,15.625
41.016,38.574,303.223,76.172,9.766
55.176,39.062,291.016,85.938,-30.273
44.922,41.016,221.191,56.641,-11.23
25.391,36.621,308.105,46.875,-6.836
20.508,29.297,309.082,53.223,0.977
31.738,30.762,186.035,49.805,36.621
19.531,33.691,345.215,35.645,2.93
-5.859,34.668,449.219,3.906,12.695
-14.648,20.508,477.051,18.555,62.988
-14.648,19.043,380.371,44.922,52.246
3.418,37.598,274.902,54.199,9.277
-47.363,47.363,370.605,11.719,38.086
-19.043,54.688,320.312,18.066,27.344
60.059,37.598,333.496,62.5,4.883
46.387,36.621,372.07,67.871,36.133
25.391,32.715,214.355,56.641,26.367
25.879,29.297,374.023,74.219,16.602
-2.441,42.48,526.855,34.18,15.625
-16.113,40.527,516.113,15.137,26.855
5.859,25.391,498.047,45.898,34.668
11.23,44.434,344.727,21.484,-2.441
49.316,65.43,379.395,51.27,-11.23
50.781,44.434,461.426,87.891,2.441
62.988,44.922,473.633,70.312,-16.113
12.695,47.363,526.367,24.414,15.137
-6.348,39.062,528.809,21.973,118.652
29.297,44.434,410.156,9.277,100.586
36.621,53.223,359.375,16.113,50.781
52.246,60.059,488.77,78.613,13.184
39.062,60.059,625.488,79.59,-14.16
13.672,51.758,572.754,45.41,33.203
55.176,34.668,563.477,54.199,62.988
68.848,40.039,591.797,65.918,38.086
41.504,50.781,588.379,50.293,20.508
21.484,59.082,698.242,32.715,67.383
19.043,67.871,471.68,32.227,52.734
31.25,70.801,395.508,0.488,29.297
-21.973,61.523,660.645,5.371,42.969
4.883,63.965,582.52,60.547,12.695
85.938,49.316,637.207,46.875,10.254
58.105,42.48,607.422,12.207,42.48
78.125,59.082,513.184,42.48,78.125
71.289,51.758,697.266,73.73,64.941
73.73,73.73,744.629,83.496,20.508
78.613,75.195,731.445,105.957,-0.977
62.988,52.246,655.273,64.453,19.531
72.754,60.059,586.426,21.973,9.277
55.176,65.918,656.738,27.832,35.156
75.195,57.617,668.457,46.875,62.988
72.754,56.641,680.664,69.824,13.672
74.219,58.594,560.059,75.684,36.621
30.762,39.551,401.367,20.02,34.668
31.738,40.039,639.16,10.742,26.855
34.18,74.219,732.91,25.391,20.508
-91.309,64.941,679.688,-69.336,-3.906
5.371,44.922,643.066,-9.766,44.434
62.988,57.129,504.395,87.891,36.621
88.379,61.035,555.176,97.656,5.371
177.246,50.293,593.262,95.215,17.578
101.562,45.898,573.242,62.5,-1.953
86.914,48.828,532.227,91.797,6.836
101.074,56.641,437.012,62.012,11.23
64.453,62.988,336.426,48.828,-41.504
50.781,52.246,337.891,17.09,-22.949
24.414,40.527,524.414,-18.555,55.176
-20.996,55.664,554.688,8.301,59.082
53.711,53.223,240.234,59.57,55.664
119.141,34.668,209.961,23.926,38.574
85.938,44.434,453.125,26.367,58.105
56.152,38.574,428.223,94.727,65.918
22.949,33.691,271.484,36.133,-12.207
28.809,65.43,206.543,-0.488,-25.879
2.441,43.457,301.27,-8.301,5.859
31.738,38.574,265.137,24.414,-21.484
69.824,44.922,205.566,40.527,-17.578
33.691,30.762,220.703,20.996,24.902
69.824,55.664,200.195,47.363,3.906
33.691,42.969,250,4.883,-26.367
57.617,45.898,307.129,-1.465,3.418
142.578,47.363,309.57,64.453,52.246
86.914,29.297,313.965,82.031,9.766
109.863,33.691,104.492,127.93,-32.715
95.703,31.738,72.266,76.172,16.113
55.664,41.504,303.223,5.859,30.273
94.238,49.805,350.586,74.707,85.938
74.219,22.461,286.133,65.918,62.5
28.809,31.738,49.805,0.977,-4.395
60.059,33.203,51.758,3.906,73.73
74.707,19.043,262.207,14.16,36.621
93.75,41.992,288.086,63.965,-12.207
124.512,39.062,322.266,100.098,34.18
85.938,35.645,219.727,83.984,28.32
73.242,27.832,108.887,66.895,-13.672
63.965,30.762,147.949,18.066,-44.434
43.945,46.875,191.406,18.066,6.836
85.449,38.086,264.648,43.945,51.27
30.762,17.09,219.727,24.902,95.703
-29.785,11.719,95.703,-36.621,74.707
39.551,41.504,77.148,-41.504,58.594
60.059,40.039,45.898,57.617,41.992
17.578,-0.488,203.613,62.988,34.668
4.883,21.973,288.574,-2.93,34.18
18.066,23.438,36.133,11.23,33.691
-17.09,-6.348,106.445,63.965,22.461
45.41,3.418,258.301,75.684,-41.016
37.109,8.789,277.344,-17.578,-2.441
67.871,23.438,241.211,15.137,76.66
90.82,15.137,144.043,103.027,59.082
44.434,22.461,160.645,68.359,8.789
3.418,23.438,138.672,10.742,-23.438
-42.48,-7.812,76.66,20.02,-48.828
32.715,21.484,182.617,62.5,-28.32
46.875,1.953,88.867,39.062,11.719
46.875,10.742,51.758,38.086,21.484
4.883,14.16,236.816,-20.508,10.254
-40.527,-13.672,291.504,-80.078,41.016
-19.043,36.621,268.066,-4.395,-2.441
-29.785,36.621,177.246,51.27,-13.184
18.066,10.254,170.898,34.668,19.043
-32.227,34.18,151.855,-27.832,-3.906
-56.641,9.277,168.457,-21.484,-8.789
1.465,4.883,233.398,23.926,28.809
23.438,1.465,76.172,-10.742,44.922
22.949,21.973,41.016,12.207,16.113
12.695,31.738,213.379,44.922,14.648
-18.555,0.488,222.168,-21.973,23.438
10.254,-0.977,301.27,70.801,50.293
8.789,8.301,130.371,61.523,64.941
21.484,23.926,-98.633,10.742,10.742
115.234,-1.953,170.898,112.305,-1.953
19.043,16.602,304.688,35.156,36.621
8.301,33.203,273.926,40.039,58.594
71.289,8.301,152.344,72.266,36.621
-36.621,2.93,101.562,-44.922,40.527
-7.324,12.695,58.105,-32.715,42.969
0.488,4.883,58.105,-39.551,7.812
2.93,31.738,221.191,-38.086,10.742
71.289,17.578,85.938,73.242,26.367
21.973,9.766,-156.738,64.941,18.555
-115.234,32.227,38.574,-34.668,-13.184
-78.125,24.902,213.867,-89.355,-4.883
-9.766,14.16,192.383,-18.555,20.996
29.785,-12.207,84.473,25.391,46.875
159.668,-0.977,-100.586,97.168,20.996
62.5,28.809,-16.113,41.504,-27.344
23.926,35.156,82.031,45.41,-43.945
-15.137,29.297,36.621,71.289,-25.391
20.996,22.949,19.531,50.781,12.695
67.383,-22.949,-4.883,59.082,38.574
42.969,-17.578,72.754,9.277,25.391
56.152,41.504,145.02,64.941,-1.953
33.691,15.137,139.648,86.914,7.324
80.078,11.23,43.457,71.289,-17.578
44.434,3.906,-80.078,3.906,-41.016
22.461,9.766,50.781,-3.906,30.273
-55.664,35.645,128.906,82.52,33.691
-52.246,10.254,131.348,5.859,48.34
86.914,33.691,94.727,30.273,91.309
37.598,26.367,-201.66,61.523,69.824
0.488,13.672,-225.098,42.48,29.297
43.457,20.02,167.969,50.293,24.902
18.066,38.086,267.09,-41.504,65.918
70.312,11.719,152.832,33.691,75.195
1.953,1.465,-7.812,49.316,36.621
-49.316,22.461,-9.277,35.645,44.434
58.594,-1.465,43.457,70.312,14.16
78.125,12.695,72.266,35.156,0.977
107.91,23.438,110.84,52.246,42.969
56.152,-2.93,4.395,11.719,38.086
30.273,17.09,-15.625,32.227,18.066
10.742,42.48,-11.23,83.496,-20.996
0.977,20.996,14.16,26.367,-17.09
-19.531,25.391,199.707,-56.641,72.266
32.715,25.879,34.668,4.395,35.156
64.453,11.23,-125.977,27.832,-1.465
48.34,22.461,164.551,32.227,28.809
52.246,30.762,222.656,76.172,-8.301
-49.316,34.18,183.105,23.438,4.395
44.922,12.207,80.566,37.109,55.664
63.965,-17.578,-10.254,3.418,72.754
18.555,15.625,52.734,10.254,28.809
37.598,28.32,43.457,14.16,-25.391
-40.527,23.438,10.742,11.719,-0.977
40.039,24.902,-51.758,109.375,42.969
105.957,29.297,-56.641,99.609,37.109
29.785,64.453,53.223,33.691,10.254
23.926,56.641,32.715,37.109,36.133
43.457,16.602,30.273,43.945,74.707
70.312,1.465,-59.57,71.777,17.09
4.883,17.578,-283.203,-23.438,7.324
18.066,42.969,-133.789,-33.203,36.621
68.359,31.25,47.363,57.129,25.879
69.824,38.086,37.109,98.633,61.035
85.938,37.598,-67.383,105.469,47.363
35.156,16.602,-213.867,24.414,51.758
-47.363,18.555,-202.148,-64.941,84.473
-23.926,36.621,-78.613,-52.734,40.039
119.141,34.668,46.875,93.75,99.609
55.176,38.574,-6.836,40.527,103.027
-6.348,25.391,-347.656,-64.453,25.879
46.875,32.227,-321.289,20.02,24.902
65.43,43.457,16.602,109.863,38.086
22.949,15.137,52.246,23.438,11.719
4.883,17.578,30.273,-42.969,0.977
70.312,32.227,-71.289,37.598,18.066
104.98,35.156,-105.957,84.961,-9.277
32.715,56.152,-82.52,49.805,-10.742
-10.742,50.293,-28.32,2.93,12.695
67.383,16.113,97.168,36.621,-0.977
42.969,28.809,7.812,20.996,22.461
55.176,45.898,-19.043,7.324,62.012
58.105,42.48,113.281,52.734,64.453
19.531,61.523,117.676,41.016,65.918
45.898,62.5,131.348,58.594,44.434
59.57,50.293,-58.594,63.477,25.391
27.344,43.945,-245.605,40.039,18.066
-51.27,41.504,1.953,10.254,-13.184
34.668,39.062,195.312,40.527,2.93
97.656,18.066,137.695,9.277,35.156
39.062,28.809,-20.508,-14.16,45.41
45.898,44.434,-147.461,41.016,10.254
-36.133,63.477,66.406,-16.113,-23.926
-57.617,51.758,209.961,-58.594,13.184
48.828,20.02,156.738,47.852,1.465
95.215,43.457,26.855,108.887,-14.16
60.059,43.457,-46.875,75.684,24.414
36.621,34.668,-2.93,45.898,0.977
47.363,50.781,20.508,5.371,-15.625
23.438,40.039,103.516,7.324,30.273
-3.906,37.109,55.664,30.762,48.828
-28.32,31.738,-95.703,-19.531,42.969
-2.93,29.785,-109.375,-29.297,14.648
11.719,40.039,16.602,11.23,60.059
15.137,43.457,122.559,28.32,19.043
53.711,52.734,123.535,77.637,-16.602
-9.766,10.254,38.574,-37.598,64.453
1.465,5.371,-2.93,-69.336,61.035
81.055,60.059,33.203,90.332,4.883
2.441,48.34,114.746,15.625,-6.348
-34.668,33.691,143.066,-50.781,42.969
21.973,18.066,17.578,-41.016,66.406
-9.277,51.27,-37.598,-3.906,35.156
-79.59,85.938,-52.246,52.246,-0.977
54.688,37.598,-25.391,84.961,-35.156
100.098,-10.254,68.848,10.254,0
13.184,28.32,-14.648,-22.461,30.762
51.758,70.801,-45.41,65.43,38.086
87.402,44.434,52.246,59.082,26.367
2.93,38.574,72.266,-17.578,25.879
-66.895,31.738,93.262,-67.383,40.527
-41.992,29.785,-126.465,-56.641,46.387
38.086,38.574,-352.539,7.812,54.688
72.754,32.227,-48.828,37.109,47.852
10.254,35.645,67.383,-12.695,0
21.973,32.227,-11.719,21.484,9.277
0,49.316,-173.828,-24.414,42.48
24.414,33.691,-285.645,-11.23,-2.441
65.918,29.297,-21.973,56.152,-6.348
-44.922,33.203,37.598,-9.277,44.434
-62.012,34.668,-29.785,-62.012,45.898
-50.781,4.883,-55.176,-104.492,72.754
56.152,12.207,-163.086,-10.742,50.781
62.012,41.016,-154.297,65.43,-20.996
5.859,46.387,-79.102,37.109,28.32
20.508,40.527,-63.477,17.09,10.254
8.789,15.625,-131.836,14.648,19.531
-23.438,43.457,-245.605,-29.785,66.895
-66.895,48.828,-256.348,-63.965,-2.93
19.531,32.227,-87.891,62.012,-9.766
56.641,23.926,57.617,47.852,36.621
5.371,19.043,-62.988,-28.809,46.387
91.309,17.09,-248.047,66.406,-9.766
58.594,61.035,-145.02,94.727,-33.203
-77.148,48.34,-74.219,-15.625,38.086
-91.309,14.648,-11.23,-74.219,86.914
34.668,25.879,-27.344,28.32,66.895
116.211,29.785,-324.707,117.676,-0.977
49.316,44.922,-219.727,86.914,-11.23
15.137,15.625,-101.074,-23.926,-17.578
-30.762,23.438,-90.332,-32.227,-6.836
-45.41,20.02,73.242,-34.18,28.809
53.223,24.414,-229.98,42.48,11.23
43.457,37.109,-240.234,114.258,50.781
64.941,26.855,50.293,69.824,73.73
-57.129,31.738,15.137,-108.398,37.109
-128.906,70.312,-17.578,-130.371,21.973
70.312,32.227,-93.262,107.422,17.578
62.988,0,-121.094,50.293,48.828
-13.184,37.598,-144.043,-90.82,18.066
47.363,21.973,-8.789,42.969,49.805
26.367,35.645,25.879,104.98,63.965
18.555,44.434,-206.055,5.371,34.18
-70.801,23.926,-239.258,-67.871,16.602
-123.535,41.504,23.438,-61.523,-28.809
94.238,31.25,96.191,0.488,-35.156
161.133,31.738,104.004,121.582,-54.199
-13.184,36.133,88.379,26.855,31.738
-88.379,39.062,-23.438,-89.355,50.293
33.691,28.809,-36.133,88.379,-3.906
89.355,14.648,64.941,109.375,41.504
58.594,35.156,138.184,50.781,46.387
54.688,21.973,37.598,54.688,47.363
7.324,49.805,-137.207,27.344,33.203
1.953,69.824,-128.418,-14.16,24.414
-1.953,15.625,16.602,-25.879,47.852
100.586,0.488,188.965,68.848,9.766
3.906,24.902,96.191,69.336,34.668
31.738,29.297,-209.473,65.43,18.066
151.855,31.738,-60.059,85.938,-9.277
58.594,56.641,146.973,60.547,41.992
-50.293,62.5,173.34,-43.457,56.641
-71.289,0,105.957,-82.031,85.938
87.891,13.672,-70.801,20.996,46.875
64.453,48.828,-78.613,16.602,5.859
39.062,17.578,-89.355,49.316,33.203
63.477,51.27,-11.23,119.629,9.766
-19.531,17.09,108.887,-8.789,3.906
32.227,19.043,-130.859,20.996,34.668
69.824,46.387,-161.133,78.613,-15.137
5.371,1.953,62.988,18.555,-32.227
41.992,19.043,129.883,-0.977,27.832
20.508,83.496,86.914,29.297,9.277
11.719,47.852,-20.02,110.84,39.062
158.203,10.742,-66.895,73.73,68.359
-3.906,24.414,-73.242,-9.277,54.688
-85.938,2.93,-56.152,-51.758,28.809
64.453,43.457,-87.891,57.617,-16.113
135.742,57.617,-251.465,150.391,16.113
95.215,43.945,-239.746,67.383,27.832
17.09,41.992,-12.695,-20.996,-10.254
23.926,33.203,42.969,17.578,16.113
8.789,51.27,32.715,46.875,42.969
47.363,41.504,-33.691,68.359,45.898
70.801,51.27,-117.676,77.148,24.414
-97.656,38.086,-96.68,-75.684,65.918
-16.113,-8.789,-94.238,-94.238,49.805
184.57,64.453,-71.777,61.035,-33.203
84.473,63.965,-123.047,48.828,-43.945
13.184,22.949,-214.844,46.387,23.438
20.508,29.297,-198.242,80.078,23.438
32.227,42.48,-52.246,62.988,2.441
109.863,36.133,111.816,57.129,21.484
118.652,30.273,-89.355,96.68,8.789
40.527,18.066,-310.547,27.344,0.977
20.996,28.32,-95.215,-3.418,7.812
30.762,52.734,-30.273,66.406,-4.883
12.207,34.668,46.387,9.277,6.348
12.695,1.465,72.266,12.207,23.926
56.641,5.371,-42.48,49.316,11.719
2.441,42.969,-25.879,-25.879,20.508
10.742,37.598,-122.07,26.855,-0.977
-13.672,51.27,-10.742,68.359,16.113
-30.273,58.105,73.73,-8.301,6.836
37.598,44.434,-169.434,-55.664,7.324
22.461,34.668,-68.359,38.574,4.883
32.227,33.691,160.156,-6.836,59.082
63.965,54.199,165.039,10.254,74.707
78.125,31.738,62.988,132.812,37.109
28.809,23.926,-81.543,6.348,27.344
-7.324,36.621,-93.262,-34.668,11.23
62.5,59.082,-78.613,89.355,1.465
72.266,28.32,62.012,66.895,35.645
48.34,20.508,2.441,40.527,62.012
37.598,30.762,-118.164,30.273,32.715
8.789,48.828,-39.551,53.223,6.348
-36.621,18.066,2.93,-11.719,33.203
-138.184,69.824,35.645,-99.609,60.547
-57.617,96.191,66.406,-31.25,55.664
74.219,-25.391,-201.66,-49.316,49.805
-5.371,23.438,-233.398,-32.715,51.27
2.441,103.516,4.395,80.078,30.762
23.438,14.16,-45.41,-35.645,-36.133
112.793,13.184,-17.09,55.664,-24.902
200.684,35.645,-64.941,204.102,36.621
-50.781,47.852,-187.012,-23.438,88.379
-129.395,52.246,-207.52,-130.859,76.172
-9.277,15.625,-156.25,-22.461,26.855
19.043,48.34,29.297,15.625,54.199
34.18,54.199,-197.266,35.156,10.254
53.223,24.414,-392.09,9.766,-54.688
-5.371,61.523,-70.801,-4.395,-12.695
-66.406,57.617,0.488,0,43.457
82.52,20.508,-3.906,25.879,103.027
15.137,68.359,-174.316,24.902,81.055
-84.473,63.965,-289.062,-11.23,11.719
136.719,5.371,-222.656,94.727,-12.207
93.75,24.414,-284.668,94.238,4.395
-29.297,12.695,-213.867,33.203,10.742
62.012,10.742,-237.793,-33.691,12.695
70.801,32.715,-416.016,-12.207,25.391
-19.043,52.246,-256.836,40.039,-53.223
23.438,78.613,-96.191,62.5,-25.391
74.707,20.996,-126.953,-1.465,6.348
-24.902,-30.273,-258.301,-104.004,26.367
16.602,11.719,-349.121,-29.297,28.32
65.918,57.617,-272.949,134.277,17.578
67.383,35.645,-297.363,106.445,-15.625
24.902,49.805,-270.02,-51.758,-0.977
-36.621,29.297,-360.352,-95.703,89.355
16.602,24.414,-452.637,28.809,63.965
27.832,25.879,-295.898,68.848,34.18
81.543,25.391,-267.09,64.941,42.969
99.121,41.992,-288.574,43.457,38.086
41.992,1.465,-386.23,6.348,23.926
45.898,-2.93,-585.938,-26.367,22.949
-44.922,29.297,-436.035,-27.832,26.367
-54.688,60.547,-269.043,10.742,1.465
74.707,63.965,-312.5,70.312,0.977
26.367,29.297,-323.242,-49.805,61.035
-44.434,21.484,-459.473,-77.637,35.156
10.742,41.992,-553.223,97.168,-54.688
10.742,32.227,-462.402,25.391,-33.691
26.855,-4.883,-320.312,-37.109,32.715
0,8.789,-285.645,41.016,11.23
17.578,35.156,-564.941,52.246,-19.043
-10.742,48.34,-583.008,25.391,5.371
-50.781,53.223,-260.254,-11.719,22.461
95.215,7.324,-260.742,45.41,47.363
114.746,3.418,-348.633,45.898,66.895
62.5,31.738,-425.293,32.715,47.852
48.34,17.09,-376.465,41.016,73.242
-29.297,61.035,-366.699,-33.203,42.969
4.395,49.805,-461.914,44.922,20.02
41.504,14.648,-385.742,84.473,46.875
45.898,6.836,-389.16,5.371,54.688
51.758,24.414,-413.086,3.418,20.996
71.289,67.871,-275.391,65.918,22.461
50.781,23.438,-302.246,42.969,17.09
-15.625,30.762,-248.047,2.441,34.668
9.766,26.855,-434.082,-28.809,1.953
4.395,12.207,-560.059,17.578,-52.246
3.418,17.578,-218.262,35.156,-15.137
40.527,26.367,-173.34,-7.324,28.809
1.953,45.41,-200.684,25.391,32.227
-53.711,56.641,-324.219,-15.625,0
92.285,32.227,-443.848,72.266,9.277
45.41,14.648,-186.523,34.668,-8.301
-74.219,29.297,-74.219,-85.449,-25.879
-9.277,23.438,-83.496,11.23,17.578
-4.883,19.043,-199.219,21.973,9.766
-11.23,16.113,-260.742,22.949,10.254
18.555,1.953,-133.789,-16.602,37.109
13.672,51.758,-105.957,6.836,38.086
-28.809,67.383,-93.75,101.074,27.832
65.43,8.301,-113.281,55.664,68.359
22.461,37.109,-196.777,-11.719,75.684
55.176,39.551,-203.613,43.945,31.25
-10.254,53.223,-171.387,-5.859,16.113
-31.25,53.711,-82.52,38.574,6.836
61.523,6.836,30.273,99.609,24.902
0.488,18.555,-199.707,-46.387,38.086
73.242,25.879,-155.762,-43.945,13.672
136.719,42.969,91.309,59.57,24.414
-48.828,36.133,47.363,-15.137,33.203
-16.602,34.18,22.949,40.527,2.93
99.121,45.41,-76.172,56.152,-14.16
19.043,65.43,4.883,60.059,2.441
43.945,34.18,124.023,55.176,39.062
-56.152,23.926,-29.297,-74.219,8.789
-0.977,62.5,-2.93,14.16,-19.043
107.91,51.27,-37.109,68.848,13.672
-12.207,26.367,-93.75,-22.949,24.414
60.059,41.016,228.027,75.684,18.066
72.754,51.758,259.277,93.262,-17.578
42.969,12.207,174.805,-4.395,-11.719
13.184,38.574,74.219,-10.742,0.977
-105.469,71.289,90.332,30.762,2.441
2.441,37.109,218.75,-3.418,39.062
111.328,0,179.688,25.391,32.715
28.809,14.648,131.348,-5.371,-2.93
32.715,30.762,-49.805,-31.25,-3.418
40.527,26.367,-48.828,49.316,39.551
57.129,39.062,254.395,34.668,-0.488
46.875,33.203,317.871,27.344,-5.859
-118.164,50.781,264.16,-11.719,32.715
-31.738,47.363,138.672,16.602,49.805
98.145,13.672,103.027,115.723,83.496
43.945,44.434,250.488,40.527,73.242
52.246,41.992,248.535,-14.16,53.711
-58.594,52.734,211.914,-19.043,61.523
-57.129,35.156,141.113,15.137,85.449
131.348,17.09,96.191,104.98,56.641
61.035,4.395,96.191,-30.273,-13.184
-59.082,16.113,133.789,-57.617,-36.621
22.461,75.195,279.785,104.98,-8.301
57.129,67.871,219.727,61.035,6.836
8.301,12.695,137.695,-34.18,13.672
-4.395,15.137,285.645,-58.105,42.969
37.598,31.738,310.059,4.883,51.758
-12.207,28.809,239.746,2.93,38.574
44.922,40.039,148.926,71.777,31.25
40.039,33.203,-32.715,64.941,13.672
-85.449,56.641,141.602,9.766,-38.574
