TP9,AF7,AF8,TP10,Right AUX
18.066,11.719,-4.395,-4.883,-48.34
33.691,20.996,2.441,1.953,19.531
24.902,21.973,6.836,5.859,40.039
13.672,15.625,5.859,3.906,18.066
6.836,12.695,2.441,-1.465,10.742
21.973,10.254,-7.324,-0.977,-13.672
42.969,4.883,-3.906,17.09,-9.766
26.367,9.766,5.859,11.23,15.137
6.348,12.207,5.859,-7.324,19.531
3.906,12.695,-4.883,-8.301,-5.859
11.23,12.207,-13.184,-13.184,-15.137
25.879,10.254,-8.789,-10.742,5.371
25.879,12.207,0.488,-0.977,32.715
20.508,11.23,2.441,3.906,-1.953
6.836,12.207,2.93,1.953,-38.574
5.371,11.23,0.488,-2.441,-29.297
29.297,9.277,1.465,2.441,-17.578
26.367,9.277,4.395,3.906,-7.812
8.789,11.23,3.418,2.441,18.066
0.977,14.648,-0.977,-4.395,32.715
5.371,14.16,-9.766,-16.602,5.371
24.414,8.301,-12.695,-14.16,-21.484
24.902,7.324,-7.324,-10.254,-12.207
13.184,5.859,1.465,-4.395,39.551
6.348,5.859,0,-1.465,29.297
7.324,4.395,3.418,-9.766,-30.273
24.902,0,9.277,-7.324,-13.184
26.367,-3.906,14.16,-1.465,53.223
16.602,-0.977,8.789,1.953,56.152
14.648,0.488,-3.418,1.465,25.391
12.695,-3.906,-5.371,-9.277,-7.812
28.32,-4.395,-12.207,-10.742,-1.465
35.156,-0.977,-8.789,-6.348,26.367
19.531,1.465,7.324,-8.301,42.48
13.672,0.488,3.418,-8.301,46.387
6.836,5.859,-3.418,-8.301,-5.859
20.02,4.883,-5.859,-10.742,-28.809
34.668,3.418,-3.418,-8.789,13.672
24.414,11.719,2.93,0,38.574
13.184,13.184,4.395,1.465,42.969
0.977,12.207,-2.93,-9.277,2.441
14.16,8.789,-11.719,-5.859,-14.648
25.391,6.836,-1.465,5.371,34.18
11.719,10.254,11.23,6.836,46.387
3.906,12.207,4.395,3.906,51.758
-6.836,12.695,0,-2.441,39.062
2.441,8.789,-3.418,-8.789,-6.348
20.996,8.301,-2.441,-5.859,9.277
9.766,13.672,4.883,1.465,38.086
2.93,13.184,5.371,4.395,53.223
0.488,17.578,-5.859,-1.953,30.273
7.812,20.508,-10.254,-9.766,-26.367
29.297,19.531,-1.465,0.488,-31.25
23.438,22.949,2.93,14.648,6.348
12.207,24.414,6.348,12.207,15.137
4.883,29.785,8.789,2.441,-8.301
9.277,32.715,9.766,0,20.508
37.109,26.855,-1.953,0.488,5.371
31.738,25.391,-2.93,-1.953,-4.395
12.695,27.832,16.602,3.418,41.992
11.719,26.855,15.625,4.395,21.973
14.648,25.879,4.395,-1.953,-11.719
35.156,23.438,8.301,5.371,9.766
34.18,21.973,16.113,9.277,29.785
20.996,22.949,15.137,10.742,36.133
10.742,22.949,4.883,2.441,20.508
7.324,20.02,2.93,-7.324,17.578
27.832,14.16,0.488,-1.953,15.137
26.367,18.066,3.418,-1.953,17.578
13.672,23.926,15.137,3.418,48.34
11.719,23.438,15.137,5.859,33.203
6.836,21.973,10.742,-4.395,-9.766
29.297,19.043,4.883,2.441,16.602
41.992,16.113,10.742,16.602,59.57
19.043,16.602,17.578,13.672,23.438
9.766,20.508,14.648,7.812,-15.625
6.348,24.414,10.742,6.836,-25.879
18.066,22.461,7.324,5.371,-39.062
27.344,18.555,8.301,5.859,2.93
17.578,19.043,14.16,2.93,53.223
16.113,17.578,10.742,0.977,21.484
12.695,18.555,7.324,-1.465,-41.016
20.02,16.113,3.418,-2.93,-71.289
27.344,10.254,6.348,-1.953,8.301
13.672,10.742,16.602,0.488,50.293
8.301,10.742,13.672,-0.977,-3.418
-0.977,8.789,10.742,-10.254,-24.414
11.719,7.324,8.301,-8.789,-21.484
28.32,6.348,6.348,-1.953,3.906
21.484,1.953,8.301,-1.465,37.598
11.719,-0.977,11.719,-8.789,30.762
3.418,2.441,10.254,-11.719,-8.789
19.531,0,0.488,-9.766,-20.508
42.48,-6.348,-1.465,0.977,-25.879
27.832,-7.812,13.184,8.301,6.348
19.531,-10.254,10.742,3.418,37.598
19.043,-12.207,5.859,-0.977,-1.465
20.996,-14.16,5.371,-5.859,-38.574
36.133,-15.625,5.371,-0.977,-6.836
26.855,-13.672,11.23,4.395,42.48
15.625,-13.672,10.742,1.953,50.781
9.277,-16.113,-0.977,-3.418,25.391
8.301,-18.066,-9.277,-11.23,0
28.32,-11.23,-8.789,-8.789,-1.465
34.668,-7.812,-0.977,7.324,48.828
20.02,-17.09,11.719,8.789,47.852
-5.859,-21.973,20.508,-12.207,0
-9.766,-17.09,15.137,-22.461,-9.766
20.508,-15.137,13.672,-11.23,-14.648
23.926,-13.184,19.531,0,24.902
10.254,-8.301,17.09,-2.93,57.617
4.395,-8.789,18.066,-8.789,20.02
7.812,-7.324,15.137,-12.207,-39.551
31.738,-3.418,3.418,-11.23,-18.066
36.621,-5.371,2.441,-6.348,16.113
15.137,-5.371,13.184,-2.441,9.766
2.93,-7.324,18.066,0.977,16.113
-1.953,-8.301,13.184,-4.883,32.715
15.625,-6.836,6.836,-7.812,18.066
28.809,-4.395,12.207,0.488,29.785
19.531,-1.953,11.23,4.395,47.852
9.277,-0.977,4.883,1.953,29.297
2.441,2.93,1.465,-1.465,-13.184
20.996,3.418,0.977,-0.977,-38.086
31.25,2.93,8.301,3.906,8.301
24.414,8.301,8.789,10.742,40.039
20.996,11.719,4.883,10.742,12.695
11.23,12.695,9.766,6.348,1.953
24.902,11.719,9.766,6.348,10.254
40.039,3.906,6.836,4.883,5.859
30.762,3.418,18.066,13.672,0.488
23.926,10.742,20.508,18.066,-0.977
10.254,12.207,15.137,6.348,5.371
16.113,4.395,8.301,0.488,-24.414
40.527,1.465,8.301,6.836,2.441
33.691,3.906,17.578,11.23,38.086
20.996,8.301,18.066,10.254,35.156
18.555,11.23,10.254,9.277,1.953
23.926,11.23,4.395,4.395,-7.324
38.574,11.719,5.859,2.93,20.508
30.762,11.719,13.672,8.301,28.32
20.996,13.184,16.113,10.254,40.527
12.695,15.137,9.766,-0.977,-1.953
10.742,11.23,0.488,-9.766,-58.594
30.762,9.277,-0.977,-4.883,-42.48
30.273,15.625,12.207,3.906,19.043
14.648,18.555,18.555,5.371,54.199
7.812,18.066,14.16,-3.418,43.457
11.23,17.578,6.348,-5.371,-15.137
30.273,17.578,2.93,3.906,-10.254
31.25,19.531,11.23,5.371,43.457
16.113,18.555,18.555,5.371,53.711
6.348,18.555,16.113,0,34.18
4.395,19.531,7.812,-13.184,-12.207
21.484,16.602,2.441,-10.254,-24.902
29.785,17.09,12.695,-2.441,35.156
18.066,20.996,18.555,-2.441,81.543
8.789,21.484,10.742,-5.859,49.316
1.953,21.484,13.672,-6.836,25.879
20.02,17.09,12.695,-2.93,23.438
33.203,15.137,15.137,3.906,23.926
22.949,18.555,13.672,11.23,35.156
9.277,22.461,14.16,3.418,45.41
3.906,20.02,22.949,-1.953,5.859
30.273,11.719,16.602,8.789,-35.645
40.039,19.531,15.625,5.371,-10.254
19.531,29.297,23.438,-0.977,18.066
11.23,29.785,15.625,-3.906,-12.695
-3.418,36.133,9.277,-23.438,-6.348
9.766,39.062,-0.977,-27.832,-9.277
34.18,33.691,-3.906,-16.602,-15.625
16.113,34.18,8.301,-10.742,28.32
2.441,33.691,7.324,-11.719,57.129
-1.465,33.203,4.395,-16.602,28.32
4.883,31.738,3.418,-18.066,-4.883
20.996,25.391,5.859,-16.113,40.527
19.531,26.855,12.207,-10.254,41.016
16.113,33.691,16.113,-4.395,44.922
11.719,39.551,10.254,-6.348,17.578
18.555,36.621,3.906,-11.719,-25.879
32.715,31.25,6.836,-8.301,15.137
27.344,31.738,9.277,-2.441,71.777
23.926,32.715,5.371,0.977,46.387
13.184,38.574,-0.488,-8.301,-15.625
11.23,38.574,-3.906,-12.207,-31.25
35.645,34.668,-0.977,-1.465,4.395
38.086,31.738,4.395,4.883,44.922
32.227,33.691,11.23,12.207,34.668
18.555,33.691,17.09,7.812,47.363
10.742,30.273,7.812,-5.859,0
31.25,25.879,4.883,-9.277,-18.066
27.832,24.902,11.719,-7.324,32.227
12.695,26.855,14.648,0.488,28.809
9.277,26.855,15.137,-2.93,35.156
9.277,26.855,6.348,-11.719,4.395
24.902,24.414,3.418,-3.418,-17.578
33.691,25.391,13.672,13.672,22.461
27.344,27.832,17.09,20.508,47.852
19.043,27.832,11.23,8.789,2.441
11.23,27.344,8.301,0.977,-33.691
30.762,25.391,5.371,0.977,-19.043
42.969,23.438,6.348,1.465,-28.32
17.578,24.414,21.484,-0.977,31.25
3.906,27.344,23.926,-7.324,43.457
1.953,28.809,11.719,-15.625,-36.133
15.625,27.832,7.812,-13.672,-10.254
28.809,23.926,15.137,-7.812,33.691
17.578,20.508,20.508,-8.789,48.34
14.648,23.438,14.648,-5.371,31.25
9.766,25.391,2.93,-9.277,-5.859
14.16,20.02,-2.441,-20.02,-7.812
32.227,18.555,4.395,-9.277,-15.137
19.531,18.555,16.602,-0.977,40.039
3.418,17.578,19.043,-4.395,68.848
-6.348,17.578,11.23,-13.672,14.648
0,10.742,0.977,-22.461,-1.465
23.438,15.137,0,-15.625,17.578
17.09,20.996,13.184,-9.277,23.438
8.301,18.066,19.531,-7.812,56.641
0.488,15.625,14.648,-9.766,49.805
4.883,14.16,6.836,-15.137,9.766
28.32,14.648,6.836,-9.277,28.32
24.414,17.578,8.301,0.977,33.691
14.648,20.996,6.348,0.977,22.949
8.789,22.949,2.441,-9.277,16.113
9.766,23.438,-2.441,-12.207,-6.348
30.762,23.926,2.93,-0.977,1.465
31.25,22.949,9.277,4.395,20.508
23.438,24.414,6.836,8.301,19.043
11.23,27.344,6.348,3.906,20.508
6.348,28.809,4.395,-2.441,-9.277
36.621,28.32,0.488,6.836,-24.414
43.457,26.367,7.812,12.695,7.324
29.297,25.391,10.254,15.137,28.809
20.508,26.367,5.859,6.836,36.621
6.348,25.391,5.859,-6.348,41.504
27.832,19.531,2.93,-2.93,29.785
40.527,19.043,4.883,4.883,18.555
20.996,17.578,11.23,4.395,35.156
18.066,20.996,5.859,2.441,-5.859
17.09,26.855,-1.953,-6.348,-45.41
23.926,22.949,0,-12.695,-13.184
32.715,23.438,1.953,-5.371,25.391
35.156,27.832,-4.883,3.418,54.688
36.133,23.438,-1.465,14.16,47.363
11.23,18.066,5.859,0.977,-0.977
15.625,12.695,1.465,-11.23,-12.695
29.297,11.23,11.23,-6.836,20.508
13.672,19.043,23.926,-3.906,51.27
5.859,22.949,23.438,-3.906,72.266
-4.883,20.02,14.648,-11.23,27.344
12.207,16.602,7.812,-6.836,-45.41
32.715,17.578,14.648,1.953,1.953
27.344,21.484,20.508,7.324,80.078
26.855,21.973,16.602,11.23,44.434
12.207,18.555,10.742,0,17.09
14.648,17.578,8.789,-4.883,30.762
39.062,15.625,9.277,10.254,39.062
28.809,16.113,9.277,12.207,29.785
15.137,20.02,9.766,7.324,7.324
6.836,24.414,8.789,-3.418,-22.949
11.719,22.949,2.93,-5.371,-50.781
39.062,18.066,1.465,3.906,-13.672
29.297,20.02,8.789,-1.465,64.453
7.812,20.02,8.789,-1.465,57.617
4.883,21.484,6.348,-0.488,25.879
14.648,21.973,-1.465,-8.301,-30.762
30.762,17.09,0.488,-5.859,-9.277
27.344,18.555,9.277,3.418,53.223
16.602,22.461,4.883,5.859,38.086
0.488,22.461,2.441,-3.906,17.578
-0.977,23.438,2.441,-8.301,-13.672
29.297,21.484,0.488,2.441,-29.785
33.691,20.996,8.789,7.812,-8.301
22.461,24.902,20.02,14.16,35.645
21.973,27.344,16.113,12.207,28.32
16.602,24.414,5.859,0.977,-31.25
29.297,21.484,5.371,1.465,-48.34
34.668,24.902,14.648,9.277,4.395
20.02,25.391,14.648,8.789,33.203
14.648,22.949,6.348,-0.977,12.695
14.16,24.414,-2.93,-2.93,18.555
29.297,21.973,-6.836,-5.371,10.254
35.156,20.02,-1.465,-8.789,-1.465
20.508,20.02,10.742,0.977,33.691
11.719,20.508,10.742,3.906,45.898
2.441,21.973,3.906,-5.859,-17.09
15.625,20.02,2.441,-9.766,-39.551
30.762,21.484,11.719,-4.883,28.32
22.461,22.949,11.23,7.324,39.062
13.184,23.438,9.766,5.371,40.527
2.93,21.484,8.789,-7.324,33.691
18.066,20.02,2.441,-7.324,-19.043
38.574,17.09,7.812,-0.488,10.254
26.367,18.555,14.16,0.488,62.012
10.742,18.066,7.812,-5.859,8.789
1.465,16.602,3.418,-14.16,-26.367
13.672,12.695,-0.488,-10.254,-44.434
31.738,11.23,1.953,-4.395,-2.441
20.996,17.578,12.695,-4.883,45.41
9.277,19.531,10.742,-3.906,41.504
5.859,19.531,4.395,-9.277,51.758
14.648,17.09,-1.953,-15.137,30.273
31.25,16.602,3.906,-11.23,30.762
27.832,18.555,15.625,-0.977,66.895
23.926,17.578,7.812,4.883,38.086
11.23,15.137,7.324,-2.93,16.113
2.93,16.602,10.742,-10.254,0
23.926,14.16,1.465,0.488,-8.789
22.949,14.16,9.277,1.465,41.504
7.812,19.043,17.09,-2.441,36.621
2.93,20.508,14.648,-6.348,19.531
12.695,20.02,4.883,-6.348,18.066
32.715,18.066,7.324,-0.977,32.715
29.297,17.09,17.09,3.906,49.316
21.973,20.508,14.16,8.301,15.625
19.531,22.949,14.16,3.906,18.066
18.555,21.973,6.836,-3.418,-1.465
37.109,18.555,7.324,2.441,-13.184
39.062,11.719,20.996,7.812,34.668
25.391,9.766,17.09,5.859,27.832
18.066,13.184,9.277,0,21.484
10.742,12.695,4.883,-9.277,-11.23
27.832,9.766,3.418,-10.254,-34.18
32.227,11.23,16.113,1.465,33.203
17.09,9.277,19.043,9.766,59.57
14.16,8.789,7.812,9.766,18.555
7.324,11.23,-0.977,0,-38.574
18.555,11.23,-1.953,-1.953,-42.48
34.668,12.207,3.418,8.789,-3.906
24.902,20.02,10.742,9.277,18.555
22.949,21.973,17.09,9.766,19.043
21.973,21.973,19.043,13.184,-17.578
32.227,27.344,8.789,5.371,-49.805
34.668,30.273,10.254,-5.371,16.113
26.367,32.715,20.508,1.465,78.613
26.367,35.156,18.555,7.812,35.156
14.16,33.691,20.508,3.418,15.137
23.438,30.273,12.207,4.395,36.133
39.062,26.367,6.348,12.207,33.691
32.227,28.32,16.113,15.625,68.359
27.832,30.762,7.812,10.742,55.664
15.137,28.809,-1.953,1.953,-4.883
17.578,25.391,-1.953,-4.883,-4.883
44.922,27.344,5.371,3.906,21.973
43.457,27.832,14.648,13.672,7.812
28.32,27.832,16.602,12.207,17.578
14.648,32.715,12.695,2.93,13.184
14.648,30.762,5.859,-1.953,-28.809
33.203,27.344,9.277,2.93,-2.441
26.367,28.809,18.555,10.742,40.527
14.16,29.297,17.578,13.184,47.363
8.301,31.25,13.184,5.859,15.137
5.371,33.691,6.836,4.883,-20.996
26.855,25.879,3.418,1.953,-10.254
29.785,22.949,11.719,-2.93,7.324
12.207,23.926,21.973,3.418,25.879
-0.488,24.414,19.531,3.418,8.301
0,23.438,14.648,-3.906,-35.645
19.531,22.949,18.555,0.488,-10.254
28.809,24.414,27.832,12.207,45.898
20.996,24.902,25.391,12.695,47.852
10.254,23.926,17.578,5.371,42.969
5.371,25.391,13.672,-0.488,25.879
21.484,26.855,15.625,0.488,12.207
30.273,22.461,16.113,12.207,26.855
20.508,19.043,15.625,13.672,36.621
13.672,21.973,18.555,5.371,16.602
3.418,29.785,18.066,-0.977,-17.09
20.02,31.738,9.277,-0.977,-46.875
31.738,27.832,18.555,0.977,13.672
17.09,27.832,30.762,5.859,58.594
11.23,25.391,22.461,6.348,5.859
0.977,22.461,23.438,-4.395,18.066
19.531,27.832,19.043,2.441,12.207
32.227,26.855,21.484,7.812,14.16
17.09,21.973,28.32,0.488,25.391
16.602,24.414,20.996,4.395,15.625
12.695,26.855,13.672,-3.418,15.137
16.602,25.391,8.789,-4.395,-15.625
30.273,23.926,12.207,3.906,-22.949
25.391,27.832,16.113,-0.977,21.484
15.137,25.391,11.719,-2.441,62.012
0,23.438,5.371,-8.301,13.672
5.371,25.391,-3.418,-9.277,-13.672
25.879,20.996,3.418,0.977,25.391
22.949,19.043,15.625,5.371,38.574
12.695,18.555,13.184,8.789,13.184
3.906,16.602,8.301,2.441,-21.484
13.672,14.648,5.371,-4.883,-4.395
41.504,18.066,2.93,7.324,27.832
41.992,18.066,12.695,10.742,58.105
22.949,21.973,16.113,6.348,66.895
3.418,28.32,8.301,-9.766,16.602
7.324,22.461,2.93,-19.043,-39.551
25.391,18.555,-0.488,-13.672,-33.691
25.879,24.414,11.23,-6.836,-10.254
20.996,25.391,14.16,3.906,34.668
12.207,23.926,5.859,-1.953,32.715
5.371,21.484,2.93,-10.254,-8.789
22.949,17.578,10.254,-6.836,-24.902
32.715,14.16,10.742,1.465,3.418
15.137,14.16,7.812,2.441,48.34
7.324,20.996,9.766,-4.395,24.902
9.277,25.879,2.93,-9.766,-22.949
24.414,25.391,0.977,-7.324,-10.254
36.133,22.949,15.137,3.906,24.902
23.926,22.949,21.973,10.742,64.453
18.066,20.996,13.672,5.859,64.453
12.695,20.508,10.254,-1.465,12.695
30.762,21.484,8.789,3.906,-36.133
46.875,23.438,13.672,8.301,-14.16
27.832,20.996,20.02,6.348,49.316
20.02,16.113,11.23,3.906,41.504
12.207,18.066,4.883,-4.883,-22.461
20.996,15.625,-0.488,-11.719,-24.902
42.48,13.184,0.488,-5.371,-6.348
29.297,12.695,18.555,0,39.062
16.113,15.137,22.461,1.953,55.176
8.789,18.066,9.277,-6.836,17.578
20.02,12.695,2.441,-9.277,-4.395
39.551,9.766,6.836,-1.953,0.488
27.832,13.672,15.625,1.953,47.852
15.625,16.113,20.508,2.441,64.941
4.883,16.113,15.625,-5.859,6.348
15.625,11.23,3.418,-7.324,-55.664
42.48,7.812,9.766,-4.395,-20.02
33.203,11.23,27.344,-4.395,33.691
21.973,16.113,25.879,-2.441,35.156
18.066,17.09,21.973,-10.742,12.207
17.09,13.672,14.16,-20.996,-33.691
24.414,12.207,14.648,-20.02,9.766
19.531,13.672,24.414,-9.766,60.059
8.301,13.672,25.391,-4.395,26.855
0,15.137,17.578,-14.16,22.949
7.324,15.625,9.766,-15.137,5.371
27.344,13.184,15.625,-7.324,-5.859
30.762,15.137,22.949,0.488,8.789
24.902,20.508,23.926,8.789,15.137
21.484,20.996,25.879,1.953,3.418
23.926,20.508,23.438,-2.441,-32.227
44.434,19.531,16.602,3.418,-74.707
40.039,20.02,22.949,4.395,-9.277
22.461,18.555,34.668,7.812,78.613
18.066,18.066,32.227,6.836,46.387
12.207,20.02,27.832,-1.953,2.93
30.762,18.555,26.367,-1.953,12.207
38.086,20.996,31.25,5.859,57.129
23.926,20.02,32.227,13.672,39.551
19.043,19.531,23.926,16.602,-15.625
9.277,20.996,17.09,4.883,-67.383
20.02,19.043,15.137,-3.418,-37.598
36.133,17.09,25.391,1.953,33.691
22.461,19.043,33.203,4.883,52.246
9.766,21.484,25.391,3.906,31.25
4.395,20.996,17.578,-3.906,-6.348
15.625,18.066,14.16,-7.812,4.395
30.762,16.113,10.254,3.418,35.156
37.109,20.996,5.371,19.531,16.113
33.691,20.508,17.578,23.926,15.625
6.348,11.23,28.809,-0.488,-1.953
6.348,4.395,20.996,-13.184,-41.992
21.973,3.906,25.391,-2.441,0
8.789,7.324,34.18,3.418,42.48
0,6.348,29.785,4.883,11.23
-6.836,9.766,26.367,-1.465,-26.855
-0.488,13.184,17.578,-12.207,-47.363
18.066,12.207,20.02,-8.789,-8.301
12.695,14.16,27.832,0.488,41.504
6.348,15.137,24.414,5.371,35.645
1.953,12.207,19.043,-2.441,29.297
-2.441,9.766,12.695,-9.766,8.301
8.789,11.23,16.113,-5.371,19.043
12.695,11.23,22.949,6.348,41.504
4.883,12.695,23.926,8.789,30.762
-2.93,22.461,23.438,-1.953,22.461
0,22.461,13.672,-10.254,-2.93
14.16,16.602,9.766,-8.301,-13.672
3.418,18.066,23.438,-6.836,37.598
-5.371,21.484,27.832,-0.977,50.781
-2.93,22.461,20.02,-5.859,23.926
-2.93,20.508,12.207,-11.719,-15.137
16.113,19.043,11.719,-10.742,-13.184
21.973,22.461,20.996,-6.348,15.137
9.766,25.879,22.949,5.859,25.391
5.371,23.926,14.648,6.836,0.488
4.883,25.391,14.16,3.418,19.043
22.949,21.973,18.066,5.859,69.336
29.785,24.414,25.391,7.324,76.66
17.09,28.809,32.227,11.719,55.176
12.207,26.855,28.32,13.672,24.414
4.395,24.902,20.02,7.812,5.859
11.719,22.949,16.113,1.953,41.992
18.066,20.508,21.973,4.395,67.871
14.16,20.02,22.949,8.789,44.922
2.93,20.996,18.066,2.93,24.414
-5.371,20.508,12.695,-3.906,-20.996
11.719,19.043,7.324,-4.883,-38.086
28.32,19.531,16.602,-1.465,-6.836
16.602,19.043,25.879,2.441,14.16
6.348,17.578,16.602,2.441,-22.949
-0.977,21.484,11.23,-2.441,-56.152
11.23,19.531,11.23,-4.395,-38.086
35.645,19.043,17.578,6.348,-4.395
27.344,21.484,25.879,12.207,23.438
12.695,22.461,24.414,5.371,25.391
5.371,26.367,22.461,-2.441,0
17.578,29.297,13.672,-4.883,-47.852
31.738,28.809,13.184,-6.348,-19.043
22.949,25.391,20.02,-1.465,26.855
14.648,23.926,20.508,3.418,9.766
4.883,30.273,20.996,-2.93,-8.301
9.277,22.949,10.742,-2.93,-27.344
31.738,15.137,7.324,3.906,-22.461
29.297,23.926,17.09,5.859,6.836
18.555,28.809,21.484,11.23,36.621
10.742,29.297,20.996,6.836,21.484
13.184,27.832,13.184,-2.93,-28.32
33.691,23.926,14.16,1.953,-12.207
24.414,24.414,20.996,2.93,44.922
11.719,26.855,19.531,6.836,47.363
8.789,22.461,13.184,3.906,21.973
0.488,13.672,6.836,-8.789,-19.043
20.508,13.184,10.254,-12.695,-21.484
23.926,16.113,23.926,-4.883,29.785
10.742,16.602,23.926,5.859,21.973
8.301,20.02,18.555,4.395,-2.441
6.348,20.996,15.625,0.977,5.371
25.391,18.066,13.672,7.812,55.176
34.18,16.602,19.043,12.207,58.594
20.02,17.578,22.461,12.695,41.016
14.648,15.625,20.508,9.766,26.367
15.625,16.113,14.16,2.441,-29.785
29.297,14.16,11.719,0.977,7.812
32.227,9.766,19.531,7.324,62.012
20.02,12.207,24.902,16.602,36.621
18.555,15.137,21.484,18.555,18.555
11.23,16.602,14.16,2.93,8.789
16.113,15.625,10.254,-0.977,19.531
24.902,12.695,16.113,3.418,14.16
13.672,13.184,20.508,2.441,29.785
7.324,16.602,19.531,0.488,34.668
-0.488,17.09,15.137,-7.324,-10.742
7.324,16.602,7.324,-9.277,-33.691
32.227,18.066,18.555,1.465,-6.836
31.25,20.02,24.902,9.766,29.785
19.043,22.461,17.09,8.789,11.23
2.93,20.02,21.973,-0.977,-11.719
15.137,16.602,12.695,-2.93,-48.34
35.156,14.16,4.883,-2.93,-68.359
20.02,16.602,24.902,3.418,3.906
8.301,20.508,28.32,10.254,53.223
1.953,20.996,20.996,2.441,36.621
8.789,20.508,10.742,-5.859,-12.695
38.086,20.996,0.488,3.418,-29.297
51.758,20.02,8.789,26.367,28.32
24.902,12.207,22.461,23.438,41.504
-1.465,3.418,24.414,-1.953,-1.953
0,0.977,17.09,-12.207,-1.465
18.555,-0.977,20.508,-2.93,-34.668
8.789,-3.418,43.457,-4.883,1.953
-11.719,-6.836,45.898,-12.207,18.555
-19.043,-10.742,49.316,-13.672,-0.977
-9.277,-9.277,48.828,-10.254,20.508
7.812,-13.672,44.922,-7.812,9.277
1.953,-20.02,61.523,0.977,8.789
-7.812,-20.508,68.848,8.789,39.062
-12.207,-20.996,64.941,6.348,-3.418
-11.23,-20.508,59.57,6.836,0
11.23,-19.531,56.152,11.719,27.344
19.043,-21.484,62.012,20.02,30.762
2.93,-18.555,62.5,18.555,28.32
-3.906,-19.043,51.758,16.602,3.906
-5.371,-17.578,42.969,14.648,-14.648
13.672,-20.996,32.227,9.277,-45.898
25.879,-23.438,31.25,11.719,-54.688
12.207,-10.742,41.992,11.719,-13.184
1.953,-2.441,37.598,6.836,3.906
-9.766,-3.906,29.785,-2.93,10.254
1.953,-8.301,28.809,-10.254,3.906
19.531,-8.301,37.109,-2.441,34.668
10.254,-4.395,34.668,9.277,45.41
2.93,-0.488,32.227,5.859,12.695
-4.883,3.418,35.156,-4.883,1.953
9.766,5.859,25.879,-4.883,-35.645
29.297,3.418,28.32,3.418,17.578
17.09,6.836,41.992,8.789,69.824
11.23,6.836,41.504,11.719,-0.977
1.465,4.883,37.109,4.395,-20.996
8.789,3.906,31.25,-0.488,-19.043
34.18,3.906,35.645,8.789,0.488
31.25,5.371,36.621,7.324,28.809
16.602,4.395,30.273,9.277,20.996
10.742,6.348,24.414,11.23,-14.16
19.043,7.812,17.578,3.906,0
37.598,7.812,22.461,2.93,30.762
37.109,9.277,36.133,7.812,26.855
27.344,12.207,34.668,13.184,25.391
21.484,12.695,25.391,9.766,15.137
21.973,13.184,14.648,3.418,3.906
36.621,15.625,13.672,0.488,-8.301
33.203,16.602,20.02,5.371,10.742
15.137,20.02,20.02,10.742,53.711
1.465,20.02,18.555,0,50.293
-3.906,17.09,12.207,-10.742,29.297
14.648,20.508,10.254,-7.812,11.719
22.949,20.996,20.996,-2.441,-6.836
9.766,22.949,25.391,2.93,11.23
-1.953,22.461,22.949,3.906,15.137
-3.906,20.996,17.09,0,-29.297
23.926,20.02,8.789,1.465,-40.039
34.668,20.996,19.043,12.695,-1.465
17.578,26.367,31.738,20.996,21.484
12.207,28.809,28.809,18.066,-17.09
9.766,32.227,21.484,7.812,-25.391
26.855,29.785,20.996,6.348,30.762
41.016,26.855,32.227,15.137,41.016
32.715,27.344,29.785,15.625,21.484
20.02,26.367,25.391,11.23,24.902
7.812,25.391,29.297,7.324,14.16
20.996,26.367,25.391,4.395,17.09
30.762,24.902,31.738,6.836,-5.371
17.09,25.879,35.156,8.301,-3.418
9.277,23.926,29.785,11.719,4.395
6.348,27.832,28.809,1.465,31.25
18.066,31.25,15.625,-8.789,44.434
33.691,23.438,14.648,-2.93,-11.719
22.949,20.508,29.297,5.859,-1.953
11.23,25.879,25.879,9.766,8.301
8.301,27.344,18.066,10.742,35.645
18.555,19.043,12.695,7.812,59.57
32.715,15.137,15.137,4.883,20.996
24.902,16.602,26.367,11.719,40.527
16.113,17.578,24.414,14.16,15.137
10.742,17.578,19.531,1.953,-20.996
15.625,16.602,13.672,-1.465,-16.113
29.785,15.625,15.625,0.488,-32.227
23.438,13.184,24.902,0,-19.531
15.625,13.672,24.902,1.953,-17.578
14.16,20.02,24.902,-5.859,-6.836
19.043,22.461,16.602,-8.789,-6.836
34.668,19.531,14.16,0.488,-31.25
29.785,21.484,21.973,3.906,-4.395
13.184,24.902,20.508,0,32.715
6.836,24.414,14.648,-6.836,20.996
9.277,18.066,9.277,-10.742,-21.484
19.043,14.16,14.648,-9.766,-15.625
16.602,13.672,25.879,-3.906,10.742
5.859,14.16,29.785,-0.977,43.945
-5.859,12.207,26.367,-6.836,34.18
-9.277,11.719,17.09,-11.719,2.93
6.348,10.742,17.09,-7.324,-33.691
10.254,10.254,28.32,4.395,-22.461
6.348,12.207,26.855,11.719,0.488
5.859,16.113,22.461,4.395,-31.25
6.348,20.02,18.555,-0.977,-27.832
27.832,17.578,13.184,1.465,-41.992
33.691,14.648,20.996,4.883,-14.16
20.02,20.508,36.133,8.301,35.156
19.531,25.391,29.297,3.906,0.488
9.766,25.879,14.648,-5.859,-6.348
16.602,23.438,13.184,-7.324,24.414
34.18,22.949,22.949,1.465,28.809
28.32,26.855,26.367,1.465,70.801
32.227,28.809,13.672,6.836,60.547
37.598,25.879,4.395,18.066,4.883
30.762,18.066,7.324,1.953,-6.348
20.508,9.277,23.926,-9.277,-7.812
7.324,7.324,41.504,0.488,3.418
8.789,6.348,44.434,12.207,-3.418
1.465,1.465,41.992,19.531,-7.324
11.23,-2.441,40.527,24.414,-13.672
35.156,-2.93,48.34,36.621,-35.156
27.832,0,52.246,39.062,-22.461
16.602,3.418,45.41,36.133,17.578
5.371,7.324,41.016,31.25,-7.324
-0.488,6.348,34.668,23.438,-22.949
20.508,6.836,30.273,24.902,-9.277
23.926,5.371,33.203,26.367,5.371
5.859,1.953,35.645,20.996,22.949
2.93,8.301,32.715,13.184,18.066
6.836,12.207,16.113,5.371,29.297
18.066,9.277,7.324,0.977,10.254
18.066,10.254,17.09,-0.488,22.461
7.812,11.719,19.043,2.441,35.156
0.488,14.16,16.113,-1.465,-6.348
0.977,15.625,8.789,-10.254,-1.465
20.996,13.672,13.184,-4.883,11.23
24.902,13.672,24.414,2.93,39.062
13.184,20.02,15.137,3.418,30.762
5.859,24.902,15.137,-1.465,-15.137
4.883,25.879,17.09,-8.789,-3.418
22.461,24.902,9.277,-8.789,38.574
26.855,24.902,22.949,-2.93,75.684
13.184,28.809,30.273,0.977,111.816
4.395,28.809,24.414,0,102.539
2.93,24.414,15.625,-1.953,1.953
14.16,21.973,12.695,-8.301,23.438
26.367,20.996,17.578,0,32.227
20.02,22.949,19.043,13.672,15.625
9.277,23.926,20.508,10.254,52.246
7.324,20.508,11.23,3.906,21.973
14.16,17.09,6.348,-0.977,19.531
19.043,15.625,17.578,1.465,29.785
9.277,19.043,22.461,6.836,23.438
2.93,20.02,20.02,1.465,16.113
-2.441,19.043,15.625,-7.812,45.898
9.766,18.555,5.371,-7.324,55.176
34.18,15.137,9.277,-0.977,8.789
31.25,18.066,16.113,4.883,41.016
21.973,19.531,16.602,6.836,74.707
8.789,19.531,14.16,-1.953,89.844
11.719,16.602,6.836,-5.859,61.523
32.227,7.812,12.695,1.465,-8.789
27.344,6.836,19.531,10.254,-2.93
11.719,7.812,18.555,12.695,28.809
-0.488,10.254,15.625,-1.953,37.109
9.766,10.254,7.324,-3.906,13.184
31.25,8.789,5.371,4.883,12.207
24.414,11.719,21.973,6.836,41.504
11.23,14.16,26.367,8.301,16.113
8.301,16.602,20.02,2.441,27.344
14.648,17.578,8.789,-1.465,39.062
37.109,14.648,11.719,6.348,-3.906
36.621,15.625,26.367,14.16,22.461
27.344,21.973,21.973,17.09,52.246
22.461,22.949,16.602,6.348,0.488
24.902,22.949,15.625,-0.488,-5.371
41.992,18.066,8.789,-2.93,-1.465
38.086,14.16,17.578,-4.395,2.93
26.855,18.555,22.461,1.465,32.227
22.949,19.531,14.648,-2.441,-4.395
14.648,18.066,12.207,-7.324,-9.766
22.461,17.578,14.16,-5.371,-13.184
23.438,16.113,20.996,-2.93,-44.922
13.672,16.602,24.902,3.418,17.09
4.883,12.695,18.555,0.977,31.738
-3.418,9.277,9.277,-5.371,10.254
12.207,9.277,14.16,-3.418,-4.883
18.555,12.207,24.414,1.465,-8.789
6.836,15.625,28.32,5.859,16.602
2.93,21.973,24.902,3.418,-13.184
-7.812,23.438,12.207,-2.93,-49.316
0.977,20.02,10.742,1.465,-14.16
19.043,20.02,21.484,5.859,19.531
12.207,21.484,20.508,8.301,15.625
2.93,19.531,15.625,4.883,22.461
1.465,19.043,18.555,-6.348,38.086
16.602,16.113,10.742,-8.789,10.254
28.809,12.695,11.719,2.441,-17.578
17.578,17.578,20.996,9.766,60.547
11.23,19.043,22.461,7.812,76.66
4.883,18.555,19.043,0.977,13.184
9.766,16.602,13.184,0.488,-15.625
32.715,14.648,25.391,12.207,31.738
24.902,13.672,35.156,13.672,32.227
3.906,14.16,31.738,8.301,44.922
-3.418,15.137,28.809,0.977,81.055
9.766,15.625,16.113,-2.441,9.766
27.344,14.16,18.066,-3.418,27.344
19.531,14.648,29.785,1.465,63.477
14.648,20.02,22.949,4.883,22.949
1.465,22.461,22.949,-6.348,-0.977
5.371,10.742,22.949,-1.465,-15.625
36.133,5.859,23.438,14.648,7.812
17.578,24.414,25.391,-2.441,36.133
-6.836,29.297,18.066,-18.066,18.066
2.93,26.367,13.184,-9.277,18.066
6.348,32.227,3.906,-10.742,17.578
12.207,23.926,4.395,-20.508,-40.039
19.043,22.461,16.113,-11.23,1.953
6.836,36.133,14.16,-9.277,45.41
-3.906,37.598,6.836,-23.926,16.602
6.348,34.668,-1.953,-26.855,4.883
21.973,32.715,-4.395,-30.273,31.25
21.973,30.762,9.766,-23.438,40.039
11.23,33.203,14.648,-13.184,20.02
2.93,33.691,9.766,-16.113,1.953
4.883,34.18,3.418,-19.531,2.93
21.973,33.691,1.953,-22.461,-5.371
29.785,34.668,15.137,-17.09,24.414
21.484,37.598,16.113,-9.277,-1.465
14.648,41.016,13.672,-10.254,-12.207
12.695,44.434,9.277,-12.695,33.691
27.344,41.504,1.465,-12.207,-24.414
33.691,33.691,6.836,-4.883,-48.34
24.414,36.621,15.137,4.395,-19.043
22.949,38.086,17.578,5.371,31.25
13.184,32.715,13.672,-5.371,29.297
19.531,30.762,4.883,-9.277,20.02
35.156,30.762,11.719,-4.883,33.691
23.438,31.738,28.809,5.371,19.043
14.16,32.227,32.227,11.719,43.945
5.371,31.25,26.367,0,74.707
19.531,25.879,11.23,-4.395,12.695
40.527,21.973,17.578,-1.465,-20.02
29.785,23.926,29.297,3.418,29.297
24.414,24.414,19.531,13.184,-22.461
14.16,25.879,16.602,4.883,-31.738
13.184,26.367,8.789,-5.371,-17.578
34.668,21.973,13.672,4.395,-13.672
30.273,23.926,24.902,13.672,69.824
22.949,27.344,20.508,15.625,53.223
18.066,24.414,18.066,6.836,-1.465
13.184,20.508,9.766,-2.441,14.16
29.297,18.555,13.184,-0.488,32.227
29.785,18.066,24.414,7.812,0
22.461,20.996,25.391,10.254,24.414
22.461,22.949,19.043,2.441,38.086
18.555,15.625,3.906,-4.395,-38.574
30.273,13.672,-0.488,-10.254,-64.941
34.668,20.996,17.578,-1.465,-7.812
20.996,20.02,28.32,5.859,41.992
10.742,13.184,20.02,3.418,-7.812
13.672,15.137,11.23,1.953,-13.184
31.738,16.602,11.719,1.953,-4.395
35.645,15.137,20.508,7.812,-36.133
24.902,19.531,23.926,14.648,22.949
11.23,20.508,18.066,8.789,58.594
5.859,21.484,11.719,-0.977,23.926
27.344,22.949,14.648,-2.441,5.859
36.133,21.484,16.602,1.953,51.758
23.438,20.508,14.16,0.488,81.055
14.648,16.602,12.695,-7.324,19.531
7.324,18.066,13.672,-7.812,-28.809
23.438,19.531,9.766,-4.883,-21.973
31.25,16.602,16.602,-1.953,22.461
17.09,17.09,27.832,1.465,92.285
9.766,15.625,24.414,-4.395,88.867
0.488,13.672,12.207,-4.883,48.34
15.625,13.184,2.441,-5.859,18.066
28.32,13.672,15.137,-7.324,63.965
16.602,16.113,19.531,0.488,91.797
13.672,15.137,11.719,8.789,42.969
5.859,14.648,11.23,0.977,-11.719
18.066,17.09,3.906,-8.301,-45.41
34.18,18.555,12.207,-6.836,9.277
24.902,21.973,31.738,-1.465,84.961
23.438,25.391,28.809,6.836,115.234
15.625,26.855,17.578,2.93,68.848
11.23,25.391,9.766,-5.859,13.672
31.738,28.809,20.02,2.441,52.734
29.785,33.203,21.484,4.883,87.891
13.184,30.273,14.648,-1.465,73.242
5.859,27.832,13.672,-5.859,26.855
5.859,23.438,2.93,-11.23,22.461
17.578,17.578,5.371,-12.207,45.898
14.648,19.531,16.113,-10.742,52.734
7.324,21.484,13.184,-8.789,10.254
3.418,19.531,8.789,-15.137,-11.23
6.836,21.484,4.883,-17.578,28.32
27.344,20.02,14.648,-11.23,76.66
26.855,16.113,25.391,-3.906,75.195
12.207,19.531,26.367,2.93,58.594
11.23,20.996,20.996,0.977,33.691
10.742,19.531,7.812,-6.836,0.488
21.973,18.066,7.812,-9.277,-13.672
32.227,19.043,15.137,-1.953,18.555
28.32,20.996,9.766,4.883,27.832
20.02,20.996,11.719,-0.977,2.93
15.137,22.461,9.766,-4.395,17.09
30.273,22.949,5.859,-5.371,7.812
37.109,21.484,15.625,-4.883,12.695
27.832,21.973,24.414,4.395,55.664
17.578,20.02,26.855,1.465,67.871
1.953,19.043,20.02,-8.789,28.32
14.648,20.508,15.137,-9.277,11.23
27.344,18.066,20.996,-0.488,16.113
17.09,18.066,22.949,7.324,8.301
11.719,20.508,17.09,6.836,6.348
2.441,19.043,8.789,-3.418,1.465
11.719,17.578,7.324,-7.812,-26.367
25.391,17.578,20.02,1.465,1.953
14.16,19.531,21.484,3.418,28.809
11.23,18.066,20.508,0,0
6.348,17.578,22.461,-6.348,22.461
10.742,14.648,5.859,-12.695,-13.184
27.344,13.672,8.789,-5.371,-12.695
15.137,13.184,26.855,10.254,42.969
10.254,12.207,21.484,12.207,36.621
7.324,15.625,11.719,2.93,-2.441
4.883,13.184,7.324,2.441,-11.719
23.926,6.836,13.672,4.883,-8.301
16.602,5.859,24.414,8.789,-7.324
5.859,14.648,22.461,9.766,51.27
-0.488,19.043,14.648,4.395,13.672
0.977,13.672,4.883,-4.883,-55.176
22.949,12.695,8.789,-10.254,32.715
23.438,15.625,21.484,-0.488,44.922
11.719,18.066,23.926,4.395,4.883
6.348,18.555,18.555,-1.465,40.527
5.371,16.113,9.766,-2.441,15.137
18.555,16.113,15.625,-2.93,-28.32
21.484,17.09,20.996,1.465,-22.949
14.16,16.602,17.578,8.789,-20.02
3.906,16.602,20.996,5.859,-32.227
3.418,18.066,14.648,2.441,7.812
25.879,20.996,4.395,-4.395,35.156
28.32,22.949,17.09,0.977,31.738
19.531,22.461,21.484,13.672,19.531
16.113,24.414,17.09,5.859,7.324
10.742,23.438,9.277,0,-7.812
23.438,21.484,8.789,3.906,-27.832
35.156,20.996,20.508,12.207,-24.902
26.367,20.02,22.461,15.137,22.461
20.996,17.09,14.16,10.742,13.184
12.695,16.602,6.836,4.883,20.996
18.555,17.578,8.789,-4.395,30.273
33.691,14.648,14.16,0.488,-12.695
18.555,12.207,13.672,8.301,-7.812
8.301,15.625,12.207,3.906,15.625
7.812,18.066,7.324,0.488,-44.922
15.137,14.648,1.953,-0.488,-75.684
24.414,15.137,17.09,1.465,37.598
16.113,17.578,25.391,6.348,60.059
12.695,15.625,17.578,5.371,17.578
2.93,12.695,13.672,-0.977,-14.648
8.301,3.906,9.277,3.906,-37.598
40.039,-1.465,20.996,22.949,42.48
28.32,9.766,22.949,16.113,44.434
5.371,15.137,11.23,-7.812,13.672
3.906,17.578,15.137,-11.23,1.465
2.93,20.996,9.766,-19.043,-28.32
9.766,20.508,12.695,-31.25,-18.066
18.066,19.531,22.949,-17.09,-13.672
16.113,21.973,18.555,-6.348,4.883
-1.465,25.391,9.277,-26.367,21.973
1.465,25.391,-2.93,-34.18,-24.414
21.973,23.438,-1.465,-24.414,-31.738
21.484,20.02,4.883,-20.02,-2.441
17.578,22.949,4.395,-11.23,45.41
18.066,24.902,9.766,-7.812,85.938
26.367,22.949,0.977,-11.23,41.016
41.992,20.508,2.441,-12.695,25.879
27.832,17.09,19.043,-6.836,40.527
12.695,17.578,16.602,-1.953,50.781
3.906,21.484,12.207,-8.301,31.738
-2.441,21.484,7.812,-12.695,23.438
21.973,18.555,8.301,-9.766,33.691
29.785,17.578,18.066,-4.395,21.973
13.672,19.531,18.555,-3.418,-15.625
5.859,20.02,8.789,-6.348,-65.918
0.977,16.602,6.348,-13.672,10.254
21.484,13.184,7.812,-15.625,31.738
38.086,17.578,19.043,-5.371,-26.855
29.785,21.973,23.926,6.348,-12.207
22.949,24.414,21.484,2.93,14.16
20.02,24.902,16.602,-3.906,4.395
33.691,21.973,8.301,-4.883,-43.457
49.316,23.926,20.996,-1.465,37.598
41.992,27.832,24.902,8.789,78.613
31.738,29.297,17.09,8.789,33.691
26.367,28.809,16.602,0.977,2.93
39.062,27.344,15.625,4.883,-7.324
45.898,26.367,21.484,13.672,20.02
28.809,26.367,28.32,9.277,24.414
21.973,24.902,30.273,13.672,47.363
14.648,25.879,25.879,11.719,33.691
22.461,22.461,10.742,9.277,-14.16
39.062,19.043,15.137,18.066,-32.715
27.832,22.949,33.203,16.113,38.574
19.531,21.484,29.785,11.23,74.219
11.23,16.602,17.09,2.441,6.348
11.719,13.672,12.695,-7.324,-2.93
31.738,12.207,18.066,-3.418,-15.625
31.738,10.254,22.949,5.859,14.648
18.555,7.812,23.926,6.836,39.062
11.719,10.254,22.949,-5.371,8.301
16.113,12.207,17.578,-9.277,19.043
29.785,7.812,18.555,-1.953,2.441
25.391,4.883,30.273,1.465,-10.254
17.578,8.789,29.297,3.906,30.762
14.648,16.113,23.926,2.93,36.133
8.301,14.648,12.695,-5.371,-7.812
20.02,13.672,13.184,-6.836,10.742
31.738,18.066,19.531,9.766,-9.277
26.367,20.02,23.438,20.508,17.09
15.625,20.996,23.438,16.113,27.344
14.648,21.484,11.23,8.301,-21.484
23.438,17.578,12.695,2.93,20.02
23.438,15.625,27.832,9.277,61.523
16.113,17.578,29.785,13.184,79.59
4.395,17.578,29.297,8.301,94.238
-3.906,15.625,19.043,2.93,22.949
14.648,13.184,15.137,-2.441,-22.949
30.762,13.184,28.809,4.395,28.32
22.461,16.602,28.809,8.301,14.648
18.066,19.531,22.949,2.441,-11.719
10.742,17.578,20.02,-1.953,-18.066
21.973,12.695,12.207,-1.465,7.324
31.25,14.648,19.043,-2.441,51.758
20.02,20.02,31.738,-2.441,101.562
15.625,22.461,26.855,-3.418,78.125
10.254,23.438,19.043,-7.812,5.859
17.578,20.02,21.973,-13.672,22.461
32.227,18.555,32.715,-10.254,24.414
31.25,20.02,36.133,5.371,26.367
25.391,19.043,33.691,6.836,18.066
21.484,20.996,27.832,-5.859,-35.156
21.973,20.996,24.902,-9.277,-7.324
32.715,20.02,31.738,3.418,36.133
32.227,19.043,30.762,10.254,20.996
24.414,18.066,27.832,4.395,5.859
17.578,22.949,29.297,-2.93,26.855
28.32,21.973,19.043,-5.371,-4.883
49.316,18.555,25.391,-3.418,-15.137
41.992,21.973,36.133,3.418,6.348
30.762,23.926,33.203,5.859,2.93
22.949,25.391,31.25,1.465,10.254
21.973,25.391,20.996,-10.742,32.715
34.18,22.949,21.973,-13.672,-4.883
28.32,21.484,32.227,0,-16.113
19.043,23.926,28.32,7.812,-3.418
9.277,21.484,17.578,-2.93,21.484
4.883,18.555,9.277,-13.672,5.859
27.344,19.043,13.184,-12.207,-23.438
26.367,18.066,22.949,-8.789,5.859
14.648,17.578,25.391,-2.93,23.926
6.836,18.066,24.414,-8.301,-15.625
0.977,15.625,16.602,-14.648,-10.254
17.09,10.254,14.648,-18.066,38.574
17.09,7.812,28.32,-15.625,60.547
5.371,12.207,33.203,-3.418,108.887
6.348,14.648,24.414,-3.906,83.984
4.395,15.625,17.09,-11.23,77.637
17.09,17.09,16.602,-9.277,107.91
29.297,15.625,25.391,-0.488,40.527
14.16,15.625,30.762,3.418,46.387
1.465,15.625,21.484,-2.441,61.035
1.465,18.555,16.113,-4.395,12.695
16.602,16.602,15.137,-0.977,2.441
23.926,14.16,15.625,-0.977,-0.977
11.23,16.602,15.625,0.488,25.879
1.953,15.625,15.137,-0.488,62.5
-0.488,16.113,10.742,-1.465,12.695
15.137,17.09,1.465,-4.883,-18.066
28.32,17.09,11.23,-1.953,33.203
17.09,16.602,20.02,9.766,54.688
5.859,17.578,16.602,11.719,52.734
0,20.996,12.695,5.371,52.734
7.812,21.973,8.301,3.418,62.5
24.414,19.531,17.09,10.742,66.406
21.484,20.996,21.484,17.578,38.574
9.766,22.461,20.02,12.695,50.781
1.953,20.996,19.531,1.953,66.895
5.371,20.02,11.719,-4.395,54.199
20.508,16.602,16.113,-1.465,66.406
20.02,14.648,21.973,9.766,37.598
8.301,16.113,20.02,8.301,40.527
-1.465,18.066,14.648,-4.395,43.457
4.395,17.09,0.977,-10.254,28.32
30.273,16.113,0.488,-11.23,24.414
28.32,19.531,16.113,-10.742,30.273
18.555,19.531,20.02,-6.348,66.406
20.508,19.043,14.16,-3.418,20.02
16.113,22.461,10.254,-11.23,-38.574
26.367,22.949,18.066,-9.277,23.438
34.668,21.484,24.414,6.348,83.984
26.855,21.484,19.043,6.348,60.547
17.578,22.461,12.695,0.977,36.133
11.719,19.043,1.465,-4.395,-7.812
27.832,15.625,3.906,-3.418,-20.996
35.156,16.113,17.09,5.371,27.832
25.879,19.531,18.555,6.836,81.055
20.02,20.508,18.555,8.789,49.805
17.09,17.578,12.695,7.812,11.719
35.156,17.09,9.277,3.906,53.223
40.039,20.02,24.902,7.324,70.312
26.367,20.996,28.809,11.23,44.922
20.508,20.996,24.414,4.883,54.688
16.113,20.508,16.113,0,46.875
21.484,17.578,9.277,-9.766,10.742
37.598,15.625,18.555,-2.93,6.348
31.738,18.066,20.508,11.23,23.438
17.578,20.02,18.066,4.883,29.785
15.625,18.066,17.09,1.953,-18.555
24.902,14.648,14.648,-0.488,-29.785
33.691,13.672,22.949,-0.977,61.523
32.227,15.625,26.855,10.254,89.355
29.297,19.531,22.949,7.812,55.664
24.902,23.438,16.602,-1.465,35.645
30.762,22.949,2.93,-4.883,-17.578
36.621,20.508,11.719,-7.812,-15.625
25.879,22.949,24.902,-0.977,30.273
16.602,24.902,17.578,1.953,49.805
10.742,23.926,12.695,-3.418,29.297
8.789,23.438,3.906,-13.184,-14.648
19.531,21.484,11.719,-15.137,0.488
14.16,22.949,31.25,-7.812,79.102
-1.465,25.391,30.273,-10.742,63.477
-0.977,22.461,26.367,-10.254,-25.391
6.836,21.484,24.414,-11.23,-25.879
12.207,27.344,20.02,-26.855,14.16
9.277,29.297,20.996,-24.414,-7.324
0,25.391,26.367,-16.602,-15.625
-7.812,28.809,22.949,-24.902,-20.996
-18.066,29.785,15.137,-38.086,-15.137
-2.93,26.855,13.184,-43.945,-1.953
-1.953,30.762,16.602,-41.504,1.953
-17.09,31.738,20.02,-39.551,-6.348
-24.414,32.227,26.367,-44.434,-2.441
-33.203,32.715,19.043,-57.617,-1.465
-19.531,35.156,18.066,-57.617,11.23
-11.719,33.203,35.645,-46.387,37.109
-24.414,34.18,39.551,-42.969,45.41
-32.227,39.551,29.297,-52.246,40.039
-21.484,37.109,19.531,-47.852,40.039
-0.977,37.598,24.902,-36.621,75.195
5.859,41.992,29.297,-28.809,52.246
-4.883,45.41,22.949,-29.785,35.156
-8.301,45.41,22.949,-34.668,37.598
-9.766,43.945,16.602,-36.133,-11.719
1.953,38.086,8.789,-42.969,-21.973
7.812,38.574,14.16,-45.898,-1.465
5.859,43.457,20.996,-28.809,20.508
11.719,43.945,19.531,-13.184,51.758
-3.418,41.016,14.16,-27.344,30.273
6.348,41.016,11.719,-34.668,-9.766
24.414,42.969,18.555,-24.414,46.875
16.113,45.898,17.578,-13.184,95.215
17.578,48.828,16.113,-5.371,77.637
18.555,46.875,10.254,-11.23,38.574
24.902,42.969,-0.488,-20.508,-16.113
40.039,41.016,9.277,-17.578,-1.465
33.691,42.48,16.602,-7.812,12.695
22.949,44.434,13.184,-4.395,39.062
16.113,43.945,6.836,-8.301,38.086
17.09,38.574,-0.977,-12.695,-43.945
30.762,34.668,10.254,-14.16,-5.371
33.691,38.574,8.301,-7.812,29.297
27.344,41.992,5.859,1.465,29.297
22.461,41.016,13.672,-1.953,51.758
25.879,40.039,1.465,-10.254,-14.648
36.621,35.645,-1.953,-5.859,-44.922
39.062,32.227,10.254,2.93,22.949
31.738,37.598,15.137,4.883,32.227
20.508,39.062,16.113,0.488,43.457
20.508,33.203,3.418,-5.371,2.441
28.809,31.25,2.441,-7.812,-37.109
26.367,35.156,22.461,-0.977,20.02
20.996,38.086,24.902,10.254,21.973
14.16,39.551,20.508,4.395,1.953
14.648,38.574,8.301,-6.836,-23.926
29.785,34.668,4.883,-7.812,-26.855
35.156,33.203,14.16,-4.395,45.898
32.715,30.762,10.742,8.789,62.012
25.879,29.785,14.648,10.254,43.457
18.555,29.297,6.836,0,16.602
31.738,26.855,-2.93,0,-16.602
43.457,29.785,16.113,4.395,-17.578
37.598,33.691,21.973,4.883,-14.16
30.762,36.133,21.973,2.93,-8.789
27.832,37.598,22.461,2.93,20.02
35.156,35.156,18.066,2.93,0.977
41.504,36.133,25.391,9.277,19.043
32.227,38.086,28.32,10.742,93.75
20.508,37.109,27.344,7.324,56.152
12.207,35.156,18.555,3.418,0
16.113,34.18,7.812,-6.348,-17.09
25.879,36.621,20.996,-6.836,8.301
25.879,38.086,32.227,2.441,23.438
22.949,39.062,29.785,1.465,0
12.207,41.504,21.973,-12.207,37.598
21.484,41.016,14.16,-11.23,20.508
39.062,38.574,21.973,1.953,-14.16
34.18,36.133,24.414,11.719,-2.441
20.02,37.598,20.996,4.883,-23.438
4.395,37.109,21.484,-9.277,-19.531
-0.488,32.715,20.02,-17.09,2.93
28.809,30.273,20.996,-0.488,29.785
44.434,33.691,25.391,22.461,20.02
9.766,36.621,25.391,-0.488,4.883
-14.16,33.691,17.578,-28.809,12.207
-0.488,31.738,3.906,-23.926,48.34
7.812,27.832,6.836,-27.344,55.664
0,29.785,21.484,-28.32,2.441
-0.488,34.668,23.926,-18.555,13.184
-15.625,33.691,24.902,-28.809,22.461
-23.926,30.273,19.531,-43.945,-26.367
-9.277,29.297,19.043,-52.734,-24.414
-6.836,31.738,20.508,-45.41,-31.25
-6.836,36.133,15.137,-31.738,-33.691
-13.184,41.504,16.602,-31.25,-2.441
-20.508,37.598,21.973,-43.457,-15.625
-0.977,32.227,28.809,-53.223,10.742
-0.977,37.598,40.039,-46.387,36.133
-15.137,42.969,37.109,-40.039,54.688
-18.555,44.922,27.832,-33.203,46.387
-24.414,43.457,25.391,-34.668,72.754
-8.789,37.598,30.273,-36.133,83.008
4.395,34.18,38.574,-25.879,0.977
-14.16,39.062,40.039,-29.785,0
-25.879,43.457,30.273,-36.133,33.203
-35.156,38.086,19.043,-42.48,38.086
-30.762,34.18,19.531,-53.711,20.508
-18.555,33.691,31.25,-50.781,36.133
-25.391,35.156,31.25,-47.363,41.992
-38.086,35.156,29.785,-48.828,13.184
-46.875,32.715,27.832,-60.059,-5.859
-38.086,31.25,25.391,-67.871,4.883
-23.926,30.762,34.668,-61.523,29.785
-27.344,33.203,35.156,-56.152,33.691
-33.691,38.086,28.809,-57.617,28.32
-41.504,39.551,22.949,-62.988,15.137
-37.109,38.086,23.438,-63.965,25.879
-22.949,32.715,26.855,-59.082,1.953
-30.273,30.762,30.762,-56.152,-5.371
-48.34,34.18,32.227,-62.988,43.457
-52.246,37.598,25.879,-65.918,31.25
-37.598,34.668,13.672,-65.43,-25.391
-22.949,32.227,21.484,-64.941,-15.137
-29.785,36.621,39.062,-54.199,20.02
-41.016,39.551,33.691,-48.34,29.297
-45.898,39.062,28.32,-54.688,41.016
-39.551,37.109,26.855,-55.664,4.883
-23.926,38.086,27.832,-49.805,-67.383
-25.879,41.992,28.809,-44.922,-52.734
-25.879,45.41,21.484,-42.48,-57.129
-29.785,45.41,20.996,-35.645,-79.59
-43.945,38.086,17.09,-45.898,-58.594
-30.273,34.18,15.137,-60.547,-12.695
-13.672,40.039,27.344,-46.387,32.227
-20.996,40.039,33.203,-38.086,15.625
-35.645,33.691,30.762,-46.387,10.742
-40.527,31.738,18.555,-50.781,41.504
-27.832,29.297,23.438,-48.34,9.277
-18.555,26.855,34.18,-37.598,34.18
-28.32,33.203,26.367,-41.992,80.566
-35.645,39.062,19.043,-50.293,47.363
-27.832,37.598,2.441,-47.363,-26.855
-10.254,34.668,0,-44.434,-18.555
-9.277,36.133,22.461,-32.715,31.25
-21.973,35.645,34.668,-30.273,71.777
-22.461,33.691,36.133,-30.273,74.219
-23.926,36.621,26.855,-30.273,21.973
-17.578,42.969,23.926,-41.504,53.223
-5.859,46.875,29.297,-35.156,20.02
-5.371,48.828,31.25,-16.113,-3.906
-14.16,45.41,33.203,-18.555,4.395
-32.715,41.016,32.715,-32.715,-3.906
-22.949,39.551,26.855,-33.203,-24.902
-3.906,41.992,24.414,-33.691,5.371
-16.113,41.504,26.367,-36.133,45.898
-30.273,39.551,31.738,-37.109,21.484
-35.645,41.992,26.367,-38.574,2.441
-25.391,41.504,15.137,-40.039,3.906
-12.695,42.48,22.949,-42.48,4.395
-12.207,43.945,33.691,-36.621,39.062
-14.648,41.992,33.203,-32.227,37.109
-24.414,40.039,26.367,-33.203,9.766
-20.508,41.504,21.973,-32.715,5.859
-8.789,40.527,26.855,-23.926,61.035
-1.465,35.645,27.832,-17.09,109.375
-4.883,31.25,25.879,-20.996,83.008
-19.043,33.203,20.02,-21.973,48.828
-25.879,34.18,17.578,-29.297,5.371
-14.16,28.32,36.621,-34.668,63.477
-7.324,28.32,41.992,-23.438,75.684
-16.602,30.762,34.18,-17.09,4.395
-30.762,29.297,35.645,-25.879,42.969
-23.438,27.344,21.484,-22.949,38.086
-3.906,29.297,20.508,-31.738,65.43
-18.066,36.133,29.785,-43.945,104.004
-24.902,39.551,23.438,-31.738,70.801
-20.508,42.48,16.113,-29.297,55.664
-25.879,39.062,6.348,-40.527,12.207
-12.207,33.691,11.719,-43.457,-22.461
-5.371,35.156,26.855,-32.227,23.926
-15.137,39.062,25.879,-26.367,65.43
-23.926,40.039,25.879,-30.762,72.266
-30.273,35.156,20.02,-37.598,18.066
-20.02,34.668,25.879,-35.156,-8.789
-7.812,35.156,35.156,-27.832,27.344
-7.812,39.062,28.32,-24.902,38.086
-19.531,41.992,28.809,-32.227,70.801
-23.926,40.039,23.926,-37.598,37.109
0.488,39.551,27.344,-34.18,27.344
14.16,36.133,38.086,-22.461,62.988
-5.371,40.039,36.133,-21.973,41.016
-13.184,41.992,36.133,-27.344,38.574
-12.695,38.086,30.762,-33.691,52.734
-12.695,36.133,23.438,-44.922,48.34
-3.418,36.133,31.738,-43.457,62.988
2.441,37.109,39.062,-27.344,58.594
-1.953,36.621,41.504,-20.02,55.176
-21.973,37.109,31.738,-39.062,37.109
-21.484,37.598,20.996,-47.363,-5.371
5.371,37.109,25.391,-28.32,18.066
5.859,34.668,26.367,-13.184,26.367
-17.09,30.273,28.32,-15.137,-2.93
-27.344,26.367,30.273,-25.879,19.043
-11.23,24.902,18.066,-27.832,2.441
4.395,28.32,19.043,-26.367,-34.18
-5.859,34.18,32.715,-25.879,10.742
-11.23,35.156,31.738,-20.02,48.828
-14.648,31.25,25.391,-20.508,42.969
-15.625,31.25,18.066,-23.438,-21.484
-0.977,30.762,28.32,-22.461,-20.508
-4.395,23.926,40.527,-12.695,62.012
-13.672,23.438,38.086,-6.348,60.547
-15.137,24.414,27.832,-19.531,35.645
-14.16,24.414,15.625,-28.809,-9.277
-2.93,21.973,21.973,-29.297,-39.062
1.953,18.066,40.039,-22.461,8.789
-4.395,18.066,41.016,-21.484,18.066
-18.066,23.926,27.344,-34.18,-3.418
-12.695,29.297,8.789,-35.645,-37.598
5.859,28.809,15.625,-25.391,-11.23
0,20.02,37.109,-15.625,41.992
-9.277,17.578,38.086,-5.859,49.316
-16.602,23.926,28.32,-10.742,44.434
-28.809,25.879,13.184,-24.902,22.461
-7.812,26.855,14.648,-17.578,27.344
2.93,20.508,27.344,-7.324,32.227
-12.207,14.648,34.18,-11.719,43.457
-11.719,17.09,35.156,-15.625,43.457
-16.602,18.066,29.785,-18.555,-31.25
-19.043,11.719,34.18,-26.367,-36.133
-3.906,10.254,46.387,-18.555,46.875
-2.93,16.113,39.551,-15.137,28.809
-18.066,21.484,29.785,-34.668,15.137
-18.555,24.414,16.113,-36.621,3.418
-3.906,28.32,12.695,-31.738,-15.137
1.953,32.715,34.18,-29.785,38.574
-3.906,35.156,37.598,-21.973,58.594
-0.977,38.086,29.297,-16.113,9.766
-2.93,33.691,27.832,-20.508,-10.742
-5.859,32.227,20.996,-28.809,-27.832
10.254,35.645,23.438,-28.32,-30.762
18.066,38.574,30.762,-11.23,-5.859
5.859,39.062,35.645,-5.371,-15.625
-2.93,36.133,32.715,-13.184,-23.926
-4.395,38.086,20.02,-20.996,4.883
14.648,40.527,25.391,-11.719,37.109
15.137,35.156,36.621,-0.977,48.34
-2.441,28.809,39.551,-8.301,15.625
-3.418,27.344,34.668,-8.301,3.906
5.371,35.645,20.508,-15.137,30.273
26.855,42.969,15.137,-20.508,-37.109
25.391,41.992,26.855,-11.719,-23.438
8.301,38.086,32.715,-12.207,29.297
5.859,36.621,29.297,-18.555,-5.371
-0.488,40.039,18.555,-36.133,-44.434
8.789,39.062,20.996,-37.109,-22.949
23.926,35.645,32.715,-14.16,14.16
16.113,32.227,38.574,-1.465,30.273
-9.766,33.691,34.18,-18.555,40.527
-20.02,37.598,19.531,-40.039,-1.953
7.324,34.668,19.043,-30.762,12.695
20.996,36.621,24.414,-13.184,36.621
6.836,35.645,26.855,-12.695,0.977
-3.906,30.273,35.156,-14.16,15.625
-14.648,25.879,24.902,-24.414,30.273
-0.488,26.855,9.277,-33.203,13.184
7.324,32.715,14.16,-32.227,-1.953
-8.789,32.227,26.367,-24.414,-11.23
-20.508,24.902,33.203,-22.949,15.137
-20.996,23.438,28.32,-26.367,12.207
-8.301,35.645,22.949,-28.32,0.488
4.883,43.457,23.438,-31.25,-39.551
2.441,43.945,21.973,-23.438,-42.969
-6.836,50.293,17.09,-21.484,-8.789
-16.113,53.711,11.719,-31.25,-4.395
-3.906,52.734,8.301,-36.621,-5.371
18.066,58.105,14.648,-29.297,0.977
8.301,56.641,26.367,-17.578,18.555
-10.254,45.41,35.156,-9.277,2.441
-17.578,46.387,26.855,-17.09,-10.742
-21.973,50.781,17.09,-37.109,2.441
-0.977,47.852,26.367,-24.902,58.105
10.254,55.176,21.973,-11.719,41.992
8.789,61.523,15.137,-5.859,6.348
-15.137,50.293,20.508,-14.648,41.992
-20.02,42.48,16.113,-29.785,4.883
13.672,40.527,21.973,-17.09,11.23
7.324,38.574,32.715,-6.348,61.035
-2.441,36.133,30.273,-6.348,3.906
-4.395,38.574,27.344,-10.742,5.859
-5.371,42.48,10.254,-34.18,45.898
7.812,39.551,11.23,-38.086,38.574
9.766,36.621,27.832,-6.348,35.156
7.324,39.062,23.438,7.324,39.062
0,42.969,12.695,-4.883,14.648
-5.371,45.41,5.859,-15.625,-14.648
14.16,47.852,5.371,-14.648,-18.555
26.855,44.922,14.16,-3.906,4.883
15.137,41.016,22.461,-0.488,88.867
3.906,43.457,22.949,-18.066,67.383
1.953,45.41,6.836,-26.367,-57.617
20.996,46.387,3.906,-17.578,-62.012
31.25,49.805,21.973,3.906,-35.156
12.207,51.758,23.926,4.395,3.418
-0.488,51.758,18.555,-11.23,25.879
5.371,47.363,16.113,-7.324,15.137
24.414,41.504,27.832,7.812,45.898
32.715,43.945,34.668,15.625,60.059
23.438,49.805,28.32,13.672,24.902
18.066,54.199,21.973,10.254,34.668
18.555,54.199,3.906,4.395,8.301
29.785,52.734,-1.465,-4.395,-11.719
52.246,59.082,6.836,7.324,52.734
62.988,62.5,12.207,32.227,73.242
43.457,50.781,28.32,32.227,30.273
20.996,44.434,22.949,15.625,-4.395
22.461,44.922,15.137,2.441,-12.207
44.922,44.922,26.367,7.324,11.23
48.34,47.852,28.809,26.367,40.039
43.457,43.945,20.508,38.086,31.25
28.809,46.387,1.953,7.324,-8.789
29.297,51.27,-8.789,-6.836,-4.883
62.012,43.457,0.488,25.879,0.977
68.359,42.969,8.301,44.434,10.742
44.434,47.363,7.324,22.949,20.508
36.621,43.945,2.441,11.719,-14.648
62.5,43.457,-10.254,31.738,3.418
79.59,43.457,-0.977,41.016,73.242
72.754,39.062,10.254,36.133,36.621
79.59,41.992,10.254,53.711,38.574
80.566,43.945,2.93,61.523,38.086
78.613,37.109,-0.977,52.246,6.836
97.168,35.645,1.953,60.059,16.113
107.422,33.203,-1.953,72.754,87.891
106.934,28.32,-0.977,80.566,71.289
95.215,34.668,-0.977,77.637,10.254
101.074,36.621,-12.207,66.895,25.391
133.301,33.691,-16.602,75.684,-16.602
142.578,33.691,-5.371,100.586,-0.488
124.512,29.785,4.883,100.586,34.668
112.793,25.879,2.93,90.332,3.418
123.535,26.367,-12.207,96.68,-22.461
142.578,22.461,-5.371,110.84,25.879
140.625,17.09,8.789,111.816,16.113
135.742,18.555,5.371,115.723,5.859
145.02,21.484,1.953,126.953,20.996
137.207,20.02,1.953,119.141,13.184
139.16,18.066,9.766,109.375,20.02
151.367,21.973,18.066,121.582,46.875
142.09,22.461,16.602,124.023,41.016
130.859,23.438,10.742,115.234,6.348
122.559,25.391,-0.488,109.375,-7.812
129.395,24.414,-3.906,102.051,9.766
132.812,21.973,5.371,102.051,19.043
126.465,20.02,13.672,106.934,15.625
118.652,19.531,15.625,109.863,46.875
100.098,17.578,4.883,98.633,74.219
102.051,15.137,-2.93,92.285,27.832
118.164,12.695,4.883,104.004,33.691
109.863,14.16,10.742,99.121,51.758
94.727,13.672,10.254,86.914,17.09
87.891,10.254,1.465,81.055,25.391
99.121,9.766,-7.812,68.848,21.973
110.352,7.324,7.324,66.895,2.93
99.609,3.418,16.602,74.707,23.926
89.355,4.395,12.695,68.848,31.25
83.008,4.395,5.859,58.105,36.133
84.473,2.441,1.953,58.594,16.113
98.145,4.883,9.766,62.988,10.254
96.68,7.812,9.277,70.801,1.953
80.566,9.277,14.16,68.848,-14.16
73.73,12.695,15.137,63.477,-20.996
82.031,12.207,2.441,61.035,-25.879
87.891,9.277,9.277,58.105,-11.719
81.543,9.277,23.438,66.895,3.418
72.754,10.742,20.996,71.777,48.828
70.312,13.184,11.719,67.383,14.648
59.082,11.23,4.883,55.176,-41.504
63.965,8.301,5.859,50.293,-23.438
75.195,8.789,14.16,57.617,0
63.965,11.719,15.137,58.594,-5.859
58.105,10.254,9.277,51.27,-40.039
59.082,4.883,-0.977,39.062,-56.641
64.453,3.418,4.395,32.227,-63.477
64.941,6.836,21.973,40.527,-41.504
59.57,10.254,20.508,43.945,-39.551
52.734,15.137,16.602,36.621,-52.734
42.48,18.066,11.719,27.832,-36.621
53.223,19.043,8.789,22.461,-58.105
60.059,21.973,14.16,33.691,-42.969
51.758,23.926,20.508,36.621,-9.766
48.828,27.832,21.484,27.832,34.18
44.922,31.25,15.625,24.902,58.105
57.129,27.344,15.137,25.391,50.781
70.312,21.973,19.531,32.715,59.082
58.105,20.02,22.461,37.598,39.551
42.969,22.949,20.996,38.574,30.762
41.016,25.391,10.254,36.621,9.277
51.27,23.438,6.836,31.25,-21.973
67.871,26.855,24.414,39.551,0.977
59.082,31.738,28.809,46.875,43.457
45.898,32.227,20.996,40.039,45.898
46.387,31.25,11.719,41.016,21.484
44.922,31.738,7.324,29.785,-12.695
56.152,30.273,19.043,28.32,47.363
62.988,27.344,20.996,45.41,82.52
50.781,29.785,15.137,38.086,52.246
44.434,30.762,9.766,28.809,22.949
45.41,26.367,7.812,27.832,-6.348
58.105,27.832,20.508,30.273,56.641
64.453,29.785,22.949,36.621,77.637
50.293,26.855,18.066,33.203,29.785
41.504,26.367,12.695,26.367,-23.926
44.434,23.438,6.836,19.531,-29.297
54.199,21.484,13.672,15.137,10.742
70.801,31.25,11.719,35.645,37.109
78.125,31.738,11.23,58.594,14.648
50.293,20.996,23.438,45.898,27.832
28.32,15.625,18.555,16.113,11.23
38.086,10.254,25.879,8.789,-31.25
41.992,3.906,51.27,28.809,1.953
28.809,3.418,53.223,36.133,14.16
8.789,-1.465,53.223,22.949,29.297
-3.418,-9.766,57.617,8.301,16.602
16.113,-13.184,62.988,11.719,49.805
26.367,-12.695,66.406,28.32,90.82
22.949,-10.254,66.895,40.039,54.199
11.23,-11.719,66.895,31.738,29.297
2.93,-8.789,49.805,21.973,9.277
26.855,-3.906,39.551,29.297,-48.828
36.621,-0.488,47.363,28.809,-45.898
31.25,0.977,54.688,32.227,-0.977
21.973,-0.488,47.852,34.18,-17.09
16.113,-1.953,29.785,26.367,-1.953
26.367,-4.395,25.879,19.043,26.367
36.133,-2.93,33.691,24.902,14.16
27.832,0.488,37.109,34.18,74.219
21.973,0.488,37.598,35.156,72.266
21.484,1.465,26.367,29.785,52.734
26.855,2.441,16.602,20.508,37.598
48.34,6.836,28.32,28.32,24.414
44.434,10.742,35.645,34.668,56.641
25.879,11.23,31.738,32.715,18.066
20.996,13.672,23.438,30.273,-30.273
25.391,15.625,25.879,21.484,-3.418
41.504,13.672,34.668,21.484,-0.488
34.18,11.23,35.156,23.438,37.598
13.672,7.324,30.762,18.555,28.809
7.324,9.766,18.555,11.23,-10.742
17.09,9.766,3.418,5.371,-29.297
33.203,8.301,16.602,10.742,-10.742
32.227,10.254,37.598,21.973,61.523
25.391,8.789,33.203,24.902,60.059
23.438,7.812,20.996,21.484,23.438
25.391,-1.953,11.23,8.789,-17.578
37.109,-14.16,27.832,11.23,-10.742
41.504,-18.066,40.527,21.973,46.387
32.715,-20.996,35.645,26.855,83.008
27.344,-22.461,29.297,25.391,58.594
24.414,-20.02,22.461,23.438,24.902
41.504,-20.996,26.855,25.391,56.152
53.223,-23.926,28.809,24.414,47.363
37.598,-21.484,30.273,25.879,12.207
25.879,-19.043,28.32,22.949,36.621
20.996,-20.508,20.508,13.184,-10.742
30.762,-22.461,21.484,11.719,-19.043
37.109,-21.973,28.32,17.578,24.414
28.32,-16.113,33.691,16.113,41.016
22.949,-14.16,27.832,11.23,44.922
17.09,-16.602,13.672,5.371,5.859
34.668,-15.625,18.066,9.277,16.602
47.852,-14.16,27.344,23.926,8.301
35.645,-13.672,27.344,22.949,31.25
34.668,-10.254,30.762,18.555,39.062
30.273,-10.254,16.602,9.277,-27.832
35.156,-12.207,13.184,-2.93,-20.996
49.805,-8.789,27.832,8.301,15.625
43.457,-8.301,23.926,18.066,11.23
26.855,-5.371,24.902,14.16,40.527
19.043,-4.395,16.113,0.977,13.672
24.902,-7.324,12.207,-9.277,4.883
34.18,-5.859,29.785,-0.977,63.477
28.32,-3.906,30.762,10.254,51.27
18.555,0.488,29.785,16.113,30.762
16.113,2.441,26.855,11.23,5.371
16.602,2.441,24.414,3.906,-21.484
29.785,3.418,34.18,10.742,-15.625
33.203,2.441,36.621,11.719,-8.789
18.555,7.812,38.086,13.672,17.578
11.23,9.277,28.32,16.113,0
11.719,8.301,17.578,-5.859,-65.43
23.926,9.766,33.691,-12.207,9.277
28.809,10.742,42.969,11.719,32.715
21.973,12.207,43.457,20.996,-8.789
16.113,11.23,37.598,14.16,2.441
16.602,7.812,29.297,7.812,-32.715
37.109,6.348,37.109,10.254,2.441
39.551,7.812,39.062,16.602,51.27
26.367,11.719,29.297,11.719,16.113
30.273,18.066,17.09,8.301,-2.93
28.809,16.113,15.137,6.836,-23.926
20.02,8.301,27.344,-3.906,-34.18
17.09,5.859,35.156,-4.883,-19.531
18.555,6.836,39.062,3.906,20.02
17.09,7.812,42.969,8.301,61.523
16.113,7.324,25.391,3.418,38.574
25.391,6.836,25.391,-3.906,30.762
31.738,7.324,37.109,0.488,39.551
22.949,8.301,34.18,8.301,47.363
17.09,9.277,29.297,3.906,46.387
20.02,9.277,23.438,2.93,30.273
27.344,3.906,23.438,3.906,-1.953
35.156,1.953,30.762,6.836,34.18
25.391,4.395,29.785,10.742,58.594
18.555,7.324,28.809,11.23,56.152
16.113,8.301,23.438,7.324,90.332
24.414,6.348,16.113,3.906,45.41
37.598,8.789,33.203,9.766,16.602
27.832,7.812,37.109,8.789,15.137
14.648,7.324,31.738,10.254,-6.836
11.23,6.836,29.785,11.23,-16.602
16.113,1.953,28.809,0.488,-20.996
31.738,1.953,32.227,11.23,-17.578
23.438,3.418,36.621,21.484,20.02
11.719,-1.465,32.715,17.09,9.766
8.789,0,17.578,8.301,-6.348
7.812,1.953,14.648,0.488,9.766
19.043,-2.93,25.879,7.324,30.273
22.461,-1.953,31.738,17.09,11.719
15.625,3.418,33.691,11.23,10.254
9.766,3.906,24.902,6.836,51.27
15.625,2.441,18.555,5.859,-1.953
29.297,2.441,27.344,3.418,9.277
23.926,2.93,27.344,9.766,30.762
18.555,4.395,25.391,12.207,-6.348
13.184,5.371,17.578,0.488,-12.207
14.648,6.836,13.184,-0.977,-11.719
30.273,5.859,18.066,3.418,33.203
31.738,3.418,18.555,10.742,27.344
20.996,5.371,23.438,21.484,-4.395
13.672,3.906,21.973,14.16,24.902
16.113,-1.953,8.301,6.836,-3.906
29.785,-1.465,16.602,6.348,-33.203
32.715,2.441,35.645,16.113,32.715
20.996,4.883,32.715,24.414,64.941
13.184,5.859,23.438,15.625,29.785
8.301,4.883,15.137,6.348,-2.441
22.461,6.836,17.578,9.277,-18.555
35.645,11.23,26.367,20.02,9.766
32.227,12.695,23.438,23.438,46.875
23.438,13.184,22.949,11.23,76.172
14.648,15.625,17.09,-2.93,50.781
26.367,15.137,14.648,-1.953,12.695
34.668,13.184,24.902,7.324,22.949
21.484,14.648,24.414,4.883,41.992
11.23,14.648,19.531,-1.465,39.062
8.789,15.137,18.555,-8.301,66.406
20.02,15.625,19.043,-13.672,58.594
29.785,12.695,23.438,-5.371,52.734
29.297,12.207,24.902,3.906,36.621
21.973,13.184,24.414,1.465,11.23
13.184,9.766,11.719,-6.348,-6.836
20.508,6.836,-1.953,-17.09,-44.434
25.391,8.301,11.719,-15.625,-15.625
18.555,11.23,26.367,0,69.336
16.602,11.23,23.926,1.953,62.012
9.277,10.254,15.137,-6.836,6.836
11.23,9.766,16.602,-6.348,5.859
29.297,8.301,24.902,4.883,12.207
33.203,8.301,28.32,8.301,49.805
23.926,11.719,27.344,7.812,35.156
19.531,13.184,19.531,3.418,-8.301
16.602,13.184,13.672,-7.324,27.344
26.855,15.625,12.695,-0.488,42.969
25.391,13.672,22.949,8.789,24.902
28.809,6.348,31.738,16.602,-0.488
50.293,13.672,19.531,31.738,-33.203
31.25,30.273,3.906,-0.977,-40.527
3.418,28.809,16.113,-39.551,-0.488
-3.906,27.344,30.273,-27.832,30.273
-9.766,28.809,25.391,-22.949,-21.973
-19.043,26.855,19.043,-38.574,-34.668
-25.391,25.879,15.137,-47.852,-0.488
-13.184,22.949,17.09,-47.852,29.297
3.906,20.508,17.578,-26.855,22.949
-2.93,22.461,21.484,-13.184,59.57
-13.184,23.438,17.578,-22.461,62.5
-13.672,24.414,11.23,-27.344,27.344
-2.441,26.367,15.625,-24.902,19.531
12.207,26.855,23.438,-15.625,46.387
13.672,27.344,24.414,-7.324,44.434
6.836,29.785,20.996,-4.395,41.504
1.953,31.25,15.137,-11.23,11.23
11.23,30.762,21.484,-17.09,-16.113
25.879,29.785,34.668,-5.859,24.902
17.578,30.762,35.156,2.441,43.457
11.719,33.203,31.25,5.371,37.109
10.254,30.273,22.949,-3.906,30.762
13.672,26.855,20.02,-12.207,22.461
29.297,28.32,29.297,-0.488,52.246
22.949,31.25,34.18,6.836,74.219
11.719,32.227,29.297,3.906,17.578
12.695,31.25,13.184,-6.836,-13.184
16.113,30.273,5.371,-21.484,-41.016
25.391,29.785,25.391,-10.742,0
24.414,29.785,27.344,4.883,15.137
16.113,30.273,19.043,5.371,-23.926
7.324,28.809,20.02,0,13.184
10.742,27.832,15.137,-6.348,10.254
26.855,27.832,15.137,2.93,9.766
17.09,26.367,20.02,8.789,58.105
9.766,27.344,22.949,7.324,55.176
13.184,28.32,16.602,7.324,1.465
16.113,27.344,9.766,-0.977,-2.93
25.391,25.879,23.438,-0.488,14.16
20.996,23.926,26.855,7.324,25.879
13.184,24.414,21.484,9.277,36.621
15.625,28.809,14.648,4.883,-11.719
20.996,27.344,9.766,-2.93,-17.09
31.25,23.926,15.625,-3.906,-8.789
30.762,25.391,20.02,2.441,-7.812
23.926,25.391,20.02,11.23,13.184
20.508,23.926,16.602,11.23,-3.418
13.184,20.996,7.324,-0.977,-13.184
21.484,19.531,13.184,-4.883,-11.719
27.344,18.066,26.855,8.789,28.32
20.02,17.578,29.297,15.137,72.266
15.625,14.648,20.996,10.742,40.527
13.184,10.254,11.719,2.93,-22.949
22.949,9.766,17.09,2.441,-78.613
31.25,9.277,25.391,8.789,-48.34
21.973,9.766,27.344,8.301,9.277
17.09,9.766,23.438,5.859,6.348
9.766,12.695,15.137,0,12.207
18.066,13.184,17.09,-7.812,43.945
32.715,14.16,22.949,-0.977,34.18
23.926,16.113,22.461,-0.488,-5.371
15.625,12.695,21.973,-4.883,-23.438
8.301,10.742,8.301,-11.23,-17.578
10.742,11.23,10.254,-18.066,-10.742
25.391,13.184,33.691,-4.395,22.461
23.438,15.625,38.086,7.324,39.062
20.508,19.531,33.691,5.371,14.648
17.578,20.996,30.762,1.465,55.664
24.902,20.02,30.273,0.977,36.621
46.875,20.508,29.785,10.742,30.273
38.086,19.531,30.273,17.578,71.777
18.555,17.09,35.645,10.742,56.152
10.742,14.16,27.344,0,31.738
11.719,12.695,21.973,-5.371,16.113
29.297,12.695,27.344,2.441,9.277
29.785,12.695,30.273,10.254,17.578
16.602,17.578,27.832,6.348,18.555
12.695,18.555,19.531,3.906,-20.02
16.602,17.578,15.625,0.977,-18.066
32.227,19.531,21.973,-0.977,17.578
38.086,18.555,22.461,6.348,57.129
25.391,19.531,24.414,12.207,52.734
9.277,19.043,22.461,5.859,72.266
10.742,18.555,13.672,-4.883,44.434
22.461,19.531,23.438,-6.348,20.02
25.879,18.555,31.738,4.395,49.316
15.625,20.508,28.809,10.742,37.598
12.207,23.438,20.02,10.742,-3.418
21.484,24.902,8.301,1.465,-81.055
31.25,27.832,20.02,-4.883,-46.875
35.156,27.832,37.109,10.742,0.488
31.738,29.785,36.621,17.09,-39.551
21.973,31.25,35.156,9.277,-23.438
11.23,26.855,27.832,2.93,-20.996
24.902,23.438,24.414,1.465,-21.484
36.133,21.973,31.25,6.348,0.977
24.414,22.949,29.297,11.23,10.254
10.742,23.438,23.438,6.348,41.016
6.348,20.508,12.207,-13.184,56.641
15.137,20.508,14.16,-14.16,-0.488
24.414,22.949,24.414,-6.348,-39.551
15.137,22.461,26.367,0,10.742
8.789,23.438,29.785,-0.977,62.988
4.883,25.391,22.949,-13.672,59.57
12.207,22.949,21.484,-14.16,28.32
30.273,19.531,26.855,-0.977,29.785
20.02,17.578,25.879,0,11.719
13.184,20.02,28.32,0,-1.953
9.766,21.484,18.555,-7.324,1.465
9.277,21.973,18.066,-20.02,6.348
20.02,19.531,39.551,-7.812,43.945
17.09,18.555,39.551,0.977,59.57
10.742,20.508,37.598,1.953,60.547
7.324,18.066,31.25,-0.977,20.508
6.348,12.695,21.484,-8.789,-55.176
23.926,9.766,28.809,-3.906,-37.109
25.879,11.719,35.156,8.301,32.715
14.648,7.812,26.855,9.766,24.414
8.789,5.859,13.672,-2.93,-5.371
6.348,8.301,9.766,-12.695,20.508
18.555,8.301,23.438,-5.371,29.297
21.973,10.254,29.297,-1.953,25.879
13.184,12.207,27.832,-2.441,65.43
0,10.254,21.484,-4.395,23.926
0,11.719,18.066,-9.277,-21.484
23.926,14.16,27.344,-5.371,22.461
26.367,15.625,32.715,-1.465,26.855
12.695,18.066,31.25,-1.953,21.484
9.766,16.602,22.949,-3.906,42.48
8.301,16.113,15.625,-5.859,29.785
19.531,17.09,20.02,-0.977,-40.039
23.926,15.625,29.297,4.395,-0.488
15.625,17.578,28.809,3.418,42.48
8.789,17.578,18.555,-2.441,-4.883
2.441,16.602,10.254,-12.695,-29.297
14.648,20.02,17.09,-16.602,41.504
29.785,21.484,22.949,-5.859,63.477
23.926,20.996,22.461,2.93,9.766
16.113,22.461,18.066,0,40.039
10.742,21.484,6.348,-12.207,-2.441
14.648,20.996,15.137,-16.113,-17.578
19.531,22.461,29.785,-3.418,71.777
13.184,21.973,28.809,1.465,85.449
7.812,20.996,22.461,-1.465,8.301
4.883,19.043,12.207,-5.859,26.855
14.16,18.066,16.602,-6.836,65.918
22.461,18.555,31.738,3.418,58.105
10.742,19.043,33.691,5.859,53.223
10.742,21.973,29.297,7.324,39.062
10.742,24.902,25.879,6.836,26.855
-2.441,20.02,23.438,-8.789,18.066
5.859,21.484,24.414,-8.301,51.27
9.277,19.043,27.832,6.836,51.758
16.602,9.277,30.762,24.902,19.043
17.578,18.555,13.672,11.719,-40.039
4.395,31.25,5.371,-22.461,-36.133
15.137,27.344,18.555,-19.531,30.762
19.043,24.414,20.996,0.977,87.402
2.441,26.367,16.602,-1.953,57.129
-18.555,23.926,10.254,-20.508,14.648
-13.672,20.996,7.324,-26.855,24.902
10.254,21.484,18.066,-18.555,30.273
9.766,20.02,28.32,-10.742,13.672
0.977,23.438,25.879,-7.324,6.836
0,27.344,15.137,-9.766,6.836
-4.395,24.902,1.953,-18.555,-12.695
4.395,24.414,6.836,-26.367,-21.484
8.301,22.949,20.996,-16.602,31.25
-2.441,22.949,21.973,-9.766,38.574
-2.93,25.391,8.301,-14.648,31.25
1.465,25.879,-4.395,-20.02,-5.859
14.16,28.32,7.812,-23.438,-58.105
15.625,28.32,21.484,-17.09,14.648
2.441,28.809,20.508,-11.23,48.828
2.93,27.344,14.16,-8.789,29.297
3.418,25.879,10.254,-16.602,23.438
12.207,25.391,14.16,-19.043,11.23
28.809,22.461,14.648,-3.418,12.207
22.949,20.508,18.066,1.465,46.875
13.672,23.926,19.531,-1.465,36.133
14.648,25.391,5.371,-6.348,-20.508
25.879,20.508,4.883,-11.23,-44.434
29.785,21.484,22.949,-2.93,-12.207
19.531,25.391,28.809,6.836,41.016
20.02,26.367,20.996,11.23,-12.207
10.254,25.391,14.648,-0.488,-46.875
10.742,23.438,13.672,-9.766,-39.062
32.715,22.949,17.09,-1.953,-22.949
29.297,22.461,22.461,6.836,1.953
20.02,22.461,17.578,4.395,-14.16
10.742,22.949,11.719,-8.789,16.113
15.625,21.973,15.137,-16.113,35.645
39.062,22.949,22.949,-8.789,16.602
35.645,25.879,29.297,1.465,23.926
22.461,26.367,26.855,7.324,29.785
17.578,26.855,15.137,1.953,-30.762
16.113,26.855,14.648,-10.742,-25.879
35.645,23.438,29.297,2.441,-20.508
38.574,20.996,34.668,18.555,-31.25
26.855,23.438,30.273,11.23,-13.184
21.973,22.949,18.555,5.859,25.391
19.531,22.461,10.254,4.395,36.133
37.109,23.438,18.066,7.812,-27.832
42.969,21.484,20.996,11.23,-38.086
27.344,22.949,23.926,7.812,40.039
22.949,20.996,12.695,6.348,12.695
21.484,17.09,0,-8.301,-54.688
24.414,17.578,16.602,-10.254,-12.207
31.25,19.531,28.32,4.395,29.785
26.367,23.438,24.902,11.23,40.039
19.043,28.32,16.602,9.277,55.664
14.16,28.32,11.719,-4.883,12.207
26.367,28.809,16.602,-10.254,-1.465
38.574,28.809,15.625,1.953,-0.977
26.367,31.25,20.02,9.766,59.57
16.602,34.18,19.531,3.906,52.246
12.695,30.273,9.277,-5.859,-74.219
21.484,27.832,14.16,-7.812,-58.594
26.855,24.902,22.461,-3.906,41.016
12.695,22.461,21.484,-0.488,41.016
10.742,22.461,18.555,1.465,44.434
10.254,19.531,10.254,-10.742,49.805
15.137,20.02,15.137,-19.043,30.762
28.809,22.949,29.297,-6.836,50.293
21.484,23.926,32.715,-0.488,69.336
14.16,24.902,26.367,2.441,46.387
5.371,22.461,20.996,0,19.043
9.766,20.996,28.32,-8.789,-0.977
27.344,22.949,31.738,2.93,-6.348
18.066,23.926,29.297,16.602,29.785
6.836,19.043,31.25,14.16,-5.859
21.484,19.531,18.066,17.09,-28.809
18.066,29.785,12.695,4.395,-7.324
12.207,29.297,29.297,-11.719,8.789
5.371,24.902,32.715,-10.254,69.824
-13.184,17.578,36.133,-17.09,32.227
-21.484,18.066,33.691,-29.785,-40.039
-21.484,23.926,24.414,-37.598,-4.883
4.395,21.973,31.25,-20.508,23.438
1.953,22.461,34.668,-20.508,18.066
-18.066,24.414,30.762,-32.227,20.508
-12.207,24.902,18.066,-24.902,-0.977
-14.16,27.832,9.766,-30.762,-3.906
-12.695,27.832,25.879,-44.922,33.691
-17.09,25.391,33.203,-42.48,6.836
-25.879,27.832,29.785,-36.621,4.883
-24.902,27.832,28.809,-34.668,35.156
-31.25,23.926,28.809,-43.457,9.766
-20.508,27.344,22.949,-54.688,4.883
-6.348,32.715,18.066,-45.41,33.203
-10.254,34.668,21.973,-32.715,28.32
-19.531,34.668,17.09,-37.598,5.859
-31.25,33.203,9.277,-47.852,-23.438
-20.996,29.785,24.414,-40.527,13.184
-14.648,29.297,31.738,-23.438,51.758
-32.227,33.691,30.273,-32.227,42.48
-30.762,34.18,24.414,-40.039,40.039
-21.973,35.645,16.113,-34.668,84.473
-9.277,40.527,20.02,-32.715,66.406
1.465,41.016,25.391,-26.367,35.156
-5.371,44.434,26.367,-25.879,86.914
-7.812,48.34,18.555,-27.832,56.152
-10.254,44.434,10.742,-39.062,-5.859
-7.812,44.922,20.996,-53.223,-12.207
4.883,50.781,34.18,-44.434,9.277
5.859,58.594,32.227,-24.902,13.672
-12.207,56.152,33.691,-25.391,26.855
-23.926,48.828,33.203,-33.203,68.848
-7.324,51.27,26.367,-34.18,35.156
16.602,53.711,26.855,-25.391,53.711
1.953,50.293,30.273,-19.043,69.336
-9.277,41.504,31.25,-20.02,-5.371
-3.418,36.621,29.785,-19.043,0
-3.418,38.086,25.391,-31.738,13.184
2.93,37.598,30.762,-36.621,40.039
-2.93,38.086,33.691,-33.691,43.945
-5.859,41.016,25.391,-27.344,46.387
-12.207,36.621,13.184,-31.25,63.477
-15.625,28.809,19.531,-50.781,12.207
6.836,32.715,31.738,-41.504,13.184
10.254,41.992,21.484,-22.949,51.758
0.977,43.457,29.297,-15.625,60.547
-10.742,35.645,36.133,-26.367,80.078
-14.648,33.691,22.949,-35.645,44.922
2.441,31.738,24.902,-27.832,32.227
3.418,27.344,33.203,-22.461,29.297
-7.812,33.203,28.809,-29.785,-9.277
-5.371,40.039,14.648,-36.133,11.719
-6.348,41.504,7.812,-35.156,4.395
-3.906,36.133,19.531,-33.691,-3.906
5.859,31.738,28.809,-24.902,-11.23
5.859,34.18,31.738,-16.602,-2.441
6.836,36.621,20.996,-17.578,9.277
4.395,38.574,12.695,-33.203,25.879
-3.418,33.691,25.391,-41.016,36.133
8.789,30.273,31.738,-18.555,-16.602
4.883,30.273,33.691,-13.184,0
-3.906,28.32,28.809,-18.555,20.02
-2.441,34.18,18.066,-21.484,-0.488
3.418,40.039,20.996,-31.25,9.766
10.254,41.504,26.855,-26.367,-8.789
1.465,43.457,32.715,-18.555,8.789
-8.789,44.922,29.297,-20.508,28.809
-13.184,45.41,20.508,-25.879,1.953
3.418,45.898,28.809,-20.02,-8.789
22.461,47.852,32.227,-15.137,-15.625
15.625,54.688,29.785,-18.555,54.688
2.93,57.129,24.414,-25.391,69.824
-10.742,53.223,20.02,-32.715,22.461
-6.836,48.34,25.391,-29.297,-12.207
16.113,47.363,27.832,-13.672,-8.789
16.113,54.199,25.879,-4.395,44.434
2.441,55.176,25.879,-9.766,40.527
-16.602,49.316,29.297,-24.414,35.645
-16.602,42.969,28.809,-32.227,29.297
3.418,41.016,35.645,-19.043,4.395
-2.441,40.039,41.992,-20.508,39.062
-11.23,39.062,34.18,-21.973,69.824
-14.16,37.598,18.066,-26.855,44.434
-13.184,36.133,21.973,-41.016,42.969
-0.488,38.086,34.668,-32.227,27.832
0.488,36.621,26.855,-18.066,-14.16
-5.371,39.062,25.391,-14.16,-27.832
-22.949,36.133,31.738,-28.809,-24.414
-37.109,27.832,33.691,-52.734,3.418
-15.625,23.926,39.062,-39.551,19.531
-4.883,23.438,38.086,-14.16,38.086
-17.09,26.367,38.086,-13.672,41.016
-22.461,27.832,32.227,-20.996,9.766
-23.926,27.832,27.832,-30.273,12.695
-5.371,28.809,40.039,-23.438,20.996
5.371,26.367,45.898,-11.23,19.531
-8.301,29.297,45.41,-7.812,23.438
-5.371,34.668,32.715,-11.719,32.227
-15.137,31.738,26.855,-33.691,-14.648
-15.137,28.809,39.551,-40.527,-10.742
-0.977,27.344,48.828,-23.438,28.32
-9.277,28.32,50.781,-9.766,52.734
-16.602,33.203,38.574,-9.766,20.508
-26.367,31.738,33.691,-27.832,2.93
-20.02,31.25,37.598,-35.156,31.25
-7.812,32.227,36.133,-21.484,17.578
-18.555,32.715,37.109,-18.555,-11.719
-27.832,36.621,35.645,-23.926,3.418
-24.414,36.133,27.344,-29.785,1.953
-10.742,37.109,21.973,-29.297,-65.918
-8.301,37.598,28.809,-28.809,-35.645
-18.555,34.18,37.109,-23.926,26.855
-17.578,34.18,37.109,-18.555,47.363
-20.02,36.133,28.809,-24.902,46.387
-12.695,35.156,22.461,-34.18,8.301
0.488,31.25,28.809,-30.762,28.32
-16.602,29.785,38.574,-33.691,75.195
-22.949,31.25,29.297,-34.668,68.359
-22.949,30.273,16.113,-37.109,57.129
-31.25,23.926,19.043,-53.223,-0.488
-16.113,20.508,31.25,-45.41,-40.527
-3.906,21.973,32.715,-22.461,15.137
-14.648,20.02,34.668,-17.09,6.348
-22.461,17.09,28.809,-27.832,-23.438
-20.02,17.578,18.555,-37.109,-31.738
-12.207,17.578,37.598,-31.25,-39.062
-16.113,16.602,51.758,-17.09,24.414
-9.766,19.043,45.898,-4.883,50.781
-3.418,22.949,37.598,-7.812,28.809
-12.695,24.414,32.715,-21.973,29.297
-2.441,20.508,37.598,-19.043,75.195
0.488,16.602,40.527,-16.602,84.473
-4.883,15.137,39.551,-17.578,42.48
-0.977,15.625,29.785,-12.207,48.34
-5.859,15.625,22.461,-14.16,54.688
-11.719,8.789,36.133,-29.785,29.297
-9.766,5.371,44.434,-29.785,31.738
0.488,10.254,41.016,-9.277,45.41
-6.348,10.254,32.227,-13.184,25.391
-32.715,6.348,25.391,-41.016,11.719
-9.277,13.672,29.297,-35.156,15.137
16.113,24.414,38.574,-10.742,33.203
-2.93,27.832,45.41,-12.695,52.734
-5.859,27.832,34.18,-15.625,17.578
-5.859,33.203,23.438,-13.672,-47.852
3.906,37.598,29.297,-12.695,-33.691
17.09,34.668,40.527,-5.371,-17.09
-4.395,30.762,46.875,-13.672,8.301
-9.766,24.902,45.898,-10.742,4.883
4.883,22.949,40.039,1.953,13.672
2.441,29.785,38.574,-14.16,22.461
-0.977,32.227,39.062,-25.391,22.949
-3.906,29.297,33.203,-21.973,33.203
-11.23,25.879,28.809,-20.02,0
-14.16,29.297,27.832,-20.02,13.184
-14.16,26.855,37.598,-27.832,5.859
-7.324,16.113,50.781,-23.438,14.16
2.441,14.648,47.852,-4.883,28.809
12.695,25.391,35.156,0.977,6.836
-6.836,31.25,21.484,-24.902,15.625
-31.738,21.973,29.785,-53.223,10.254
-4.395,20.02,45.41,-31.25,20.508
20.996,25.391,38.574,-3.418,33.691
10.742,22.461,35.156,-4.395,2.93
-8.789,18.066,36.621,-20.996,24.414
3.906,20.508,25.879,-24.414,15.137
28.32,23.438,27.344,-8.789,32.227
18.066,20.508,38.086,-8.301,50.781
5.859,21.973,33.691,-10.254,14.648
0.488,20.996,20.996,-11.23,-8.789
-4.883,19.043,23.438,-22.461,-34.18
14.16,16.113,41.016,-9.766,40.527
22.461,15.625,41.504,11.719,45.898
12.207,28.32,29.297,11.719,19.531
2.93,32.715,12.695,-8.301,56.641
-6.836,27.344,6.836,-30.273,53.711
8.301,21.973,19.043,-19.043,31.738
24.902,18.555,24.902,5.371,42.48
10.742,27.344,21.973,3.418,83.008
2.441,34.18,11.719,0,51.27
3.906,31.25,11.719,-4.883,19.531
15.137,25.391,15.137,-11.23,17.578
13.672,22.461,19.043,-12.207,22.461
7.812,23.926,27.344,-1.953,21.484
17.578,27.832,21.484,2.93,1.953
13.184,34.668,6.836,-15.137,2.93
8.301,32.227,13.184,-27.832,-41.992
17.09,27.344,27.344,-15.137,-14.648
19.043,28.32,28.809,0.977,10.742
17.578,33.203,22.461,-0.488,-23.438
0.977,35.645,13.672,-17.09,4.883
9.766,36.621,11.23,-16.602,15.137
25.879,40.039,23.438,-4.395,-8.301
3.906,39.062,35.156,-6.836,23.926
2.441,37.109,32.227,-0.488,50.293
6.836,37.109,21.484,-1.953,28.809
1.953,40.039,22.949,-17.09,16.602
4.395,40.527,37.598,-18.066,9.277
-4.883,37.109,41.992,-15.625,28.32
-5.371,35.156,34.668,-11.23,25.879
-7.812,30.273,27.344,-17.09,-0.488
-13.672,28.809,29.297,-26.855,26.367
9.766,27.832,31.25,-13.672,18.555
7.324,27.344,31.738,-8.789,-3.418
-9.277,28.32,30.273,-22.949,15.625
-8.789,23.926,20.996,-27.344,27.832
-0.488,24.902,13.672,-25.391,9.277
16.602,30.762,17.578,-22.461,-15.137
9.277,32.227,20.996,-15.137,-7.324
-6.836,32.227,23.926,-19.043,36.133
-12.207,29.297,12.207,-31.25,44.434
-14.16,26.367,11.719,-32.227,16.602
3.418,22.461,27.344,-20.02,26.367
6.836,21.973,27.344,-9.277,7.812
-2.441,29.297,26.367,-12.207,-11.719
-9.766,29.785,19.531,-19.043,-1.953
-19.531,27.344,15.625,-25.879,-11.719
-0.488,17.578,24.902,-21.484,5.371
16.602,18.066,29.297,-4.395,27.832
12.207,32.227,27.344,-4.883,51.27
5.371,36.133,14.16,-21.484,37.598
-13.184,27.832,15.625,-42.969,16.602
0,19.043,31.738,-36.133,63.965
24.902,15.137,34.668,-5.371,43.457
20.02,20.508,30.273,0.977,34.18
9.277,25.391,13.184,-20.508,19.531
-3.906,22.949,4.395,-28.809,-4.883
4.395,19.531,15.137,-22.949,24.902
21.973,23.438,16.602,-12.695,24.902
12.695,30.762,14.648,-7.812,14.648
-6.836,25.879,17.578,-17.578,14.16
-7.324,18.555,19.043,-23.438,-0.977
5.859,19.531,25.391,-22.461,5.859
14.16,27.832,26.367,-22.949,46.387
9.766,30.762,20.02,-18.066,59.57
5.371,30.762,14.16,-10.742,17.578
-6.836,27.832,5.371,-28.32,-11.23
-12.695,23.438,8.789,-38.086,1.953
-2.441,17.09,16.602,-28.809,56.641
-1.953,13.184,20.02,-25.879,19.531
-5.371,16.113,19.531,-20.996,5.371
-5.859,20.996,9.277,-23.926,-1.953
-4.395,29.297,0.488,-39.551,-34.668
-0.977,27.344,15.625,-46.387,30.273
-5.859,16.602,31.738,-39.062,39.551
-10.742,19.531,26.855,-29.785,46.875
-8.789,24.414,6.348,-36.133,47.363
-11.719,25.879,5.371,-51.758,51.758
0,23.438,21.973,-43.945,41.992
0,21.484,26.367,-24.902,69.824
-5.859,23.438,22.461,-17.578,89.355
-8.789,24.902,15.625,-21.973,13.184
-19.043,25.391,16.602,-34.668,35.156
0.488,24.902,19.531,-32.715,46.387
10.254,27.344,25.391,-20.508,42.48
-6.836,32.715,29.297,-15.625,86.914
-1.465,32.227,9.766,-13.184,26.367
-1.953,26.367,7.812,-20.996,8.789
-6.836,20.02,25.391,-26.367,43.457
2.441,20.996,26.367,-15.137,58.594
3.418,27.832,20.02,-9.766,67.871
4.883,34.668,11.719,-12.695,34.668
-5.859,34.18,8.301,-24.902,57.617
-1.465,28.809,16.113,-32.227,105.469
16.602,27.832,20.996,-16.113,43.457
19.043,28.809,21.484,1.953,3.906
17.09,29.297,15.137,1.465,17.578
9.766,34.668,6.348,-14.648,15.137
7.324,36.621,18.066,-26.367,85.449
21.973,32.227,31.738,-12.207,80.566
22.461,33.691,37.109,6.348,51.27
13.672,37.109,29.297,2.93,55.664
1.465,35.645,16.113,-15.137,0
5.371,34.668,20.996,-18.555,3.418
21.484,30.762,29.297,-7.324,10.254
15.625,25.391,30.273,-0.488,-9.277
12.207,20.996,25.879,-3.418,-11.23
11.719,22.461,17.09,-7.812,11.23
12.695,28.32,13.672,-18.066,39.062
21.973,25.391,16.602,-17.578,-29.785
17.09,21.973,29.297,-5.371,-50.293
7.324,25.391,34.18,0.488,33.203
2.93,28.32,25.879,-5.859,87.402
9.766,31.25,21.484,-4.883,0
20.02,26.367,28.32,-1.953,-58.105
12.207,20.996,36.133,-7.324,-6.348
10.254,24.902,37.598,5.859,-0.977
16.602,29.297,25.391,4.395,-49.316
15.625,28.809,20.02,-8.301,-60.547
28.32,29.297,25.879,1.465,-24.414
33.203,32.227,29.785,7.812,4.883
16.113,33.203,31.738,-2.441,-18.066
9.277,28.809,25.879,-2.441,-31.25
19.531,23.926,27.832,2.441,-34.668
29.297,26.855,34.668,-4.395,-24.902
19.043,34.668,28.32,-7.812,20.508
15.137,41.992,22.461,0.488,46.875
10.742,35.156,18.066,-0.977,30.273
-3.418,27.344,19.043,-17.578,29.785
13.672,26.855,25.391,-10.742,33.203
37.109,31.738,17.09,6.836,6.348
24.414,37.109,9.766,9.277,35.645
-3.906,29.785,13.184,-5.859,19.043
-14.648,23.926,17.09,-15.137,-33.691
12.207,24.902,24.902,3.418,11.23
33.203,27.832,29.297,14.648,76.172
12.695,30.273,20.02,4.883,63.477
0,30.273,8.789,-3.418,14.648
-3.906,29.785,5.859,-9.277,-35.645
0,28.809,17.578,-9.766,-17.09
12.695,26.855,28.32,2.93,16.113
0.977,22.949,35.156,4.883,-0.977
-5.859,18.066,34.668,3.418,30.762
-13.672,18.555,23.438,1.953,44.434
-6.836,18.555,24.902,-5.859,23.438
12.207,13.672,33.691,-3.418,-6.348
2.93,14.16,35.645,1.465,14.16
-7.324,17.578,23.438,-12.695,42.969
-12.695,19.043,4.395,-30.762,67.871
-9.277,22.949,2.93,-34.668,69.336
5.371,25.879,12.207,-23.926,35.156
3.418,23.926,19.043,-9.277,10.742
1.465,24.902,18.555,-3.906,32.227
-3.906,26.367,15.137,-14.16,55.176
0.488,21.484,19.043,-18.066,35.645
19.531,14.648,26.367,-10.742,54.688
10.742,12.695,26.367,-5.859,40.039
6.348,16.602,28.32,0.488,43.457
7.324,22.949,24.414,0.488,13.672
0.488,26.855,15.625,-11.719,-13.184
20.996,24.902,16.113,-7.812,-0.488
27.344,24.902,23.438,5.371,1.465
10.742,21.973,28.32,4.883,-12.695
12.207,20.02,15.625,2.93,-20.02
19.043,28.32,5.859,5.371,26.367
26.367,26.367,14.648,0.488,61.523
22.461,14.16,18.555,-1.953,9.277
9.277,13.672,18.066,0.488,-54.199
6.348,10.742,14.648,-3.418,-37.598
7.812,4.395,13.672,-3.906,-18.555
18.555,9.277,22.461,-9.277,10.742
20.02,15.625,20.996,-18.555,18.066
13.672,23.438,18.066,-15.625,1.953
10.742,25.391,17.09,-12.695,22.949
3.418,20.508,15.625,-17.09,-27.344
13.184,16.113,18.066,-16.602,-14.648
28.809,20.996,16.113,-6.348,77.148
26.855,26.855,15.137,1.465,59.082
21.484,22.949,15.625,-0.488,6.348
9.277,17.578,17.09,1.465,41.992
19.531,15.625,18.555,6.836,16.113
34.668,15.625,18.066,10.254,-3.906
21.484,21.973,16.602,7.324,48.828
11.23,26.367,8.789,5.371,33.203
-4.883,21.973,11.23,-1.953,22.461
-3.906,17.578,20.996,-7.812,74.219
18.066,16.113,20.996,-0.488,71.289
17.578,19.043,22.949,9.277,56.641
12.207,20.02,15.137,14.16,80.566
7.324,18.555,4.883,-4.395,45.898
12.207,21.484,14.648,-13.672,8.789
31.25,21.973,23.438,4.395,35.156
23.438,18.066,23.926,7.324,40.039
10.254,15.625,20.508,2.93,38.574
9.277,14.16,11.719,-0.488,45.41
11.719,11.23,14.648,-3.906,24.414
29.297,13.184,23.926,7.324,31.738
30.273,21.484,22.949,14.648,34.668
18.555,26.367,14.648,13.672,22.461
14.16,24.902,14.16,13.672,31.25
15.625,22.949,19.531,0.977,30.762
34.18,20.508,23.926,6.836,29.785
35.156,20.508,25.391,21.484,3.418
28.32,23.438,21.973,24.414,-11.23
26.367,23.438,12.695,18.555,-1.953
15.137,25.879,13.184,3.418,-34.668
14.16,22.461,25.879,-2.441,-23.926
28.809,21.973,30.762,12.695,-3.418
36.133,30.273,31.25,24.902,-4.883
28.809,35.156,29.785,20.508,8.301
13.672,36.621,30.273,3.906,16.113
26.367,31.738,33.691,4.395,32.715
44.434,28.809,33.691,23.438,55.176
34.18,31.738,28.32,25.879,41.016
19.043,31.25,17.578,17.09,20.02
10.254,26.367,10.742,5.371,-19.531
18.555,22.461,19.043,-3.906,-4.883
30.762,20.02,30.762,9.766,6.348
26.855,20.996,34.18,23.926,25.391
25.391,21.973,19.043,18.555,25.391
16.602,23.926,4.883,-0.488,0.977
19.043,26.367,9.277,-3.418,-20.508
29.297,25.391,21.973,5.371,-5.859
16.113,25.879,27.832,0.977,26.855
15.137,26.367,23.438,6.836,-8.789
4.883,25.391,20.508,3.906,-21.484
6.836,22.461,19.531,-3.418,-9.277
21.973,18.555,23.438,-1.953,50.293
8.301,19.043,25.879,-1.465,51.27
0.977,20.508,19.043,-1.465,-22.461
-5.859,19.043,12.695,-10.742,-39.062
-6.836,22.461,21.484,-20.02,34.668
13.672,23.926,30.273,0.488,43.945
15.137,23.438,33.691,15.625,-0.488
8.301,27.832,29.297,9.277,11.23
12.695,32.715,18.066,7.324,-40.039
19.043,37.598,9.766,5.859,-44.434
20.996,34.668,15.137,3.906,-20.996
16.113,29.785,24.414,6.836,-6.836
15.137,27.832,21.484,17.09,2.93
7.324,30.273,16.602,7.812,30.273
-4.883,31.25,15.625,-13.184,40.039
5.859,25.391,21.484,-12.695,30.273
9.766,23.926,30.273,-7.812,19.531
0.488,27.344,24.414,-9.277,20.02
-1.465,29.785,10.742,-9.277,39.551
-6.348,28.809,4.395,-19.043,19.531
8.301,26.367,7.324,-20.02,25.391
11.23,23.438,17.09,-11.23,41.992
2.93,22.949,21.484,-3.418,61.035
8.789,21.484,9.766,-5.371,-21.484
3.418,21.973,2.93,-14.16,-30.762
12.695,21.484,13.672,-11.719,78.125
24.414,18.555,22.461,-4.883,63.477
17.09,21.484,25.879,5.371,46.875
14.648,25.879,11.719,0,43.945
-3.906,23.926,0,-21.973,-0.488
-0.977,18.066,15.137,-19.531,4.395
16.602,15.625,23.926,-4.883,70.801
10.254,19.531,18.555,0,63.965
6.836,22.461,11.23,-1.953,39.062
1.953,21.484,9.277,-6.348,51.27
8.789,17.578,9.277,-8.789,0.488
20.508,16.113,8.301,-7.324,-0.488
10.254,23.926,11.23,-2.93,30.762
10.742,27.832,5.371,2.441,-47.363
6.836,25.391,4.883,-7.324,-38.574
-1.953,18.066,20.508,-20.508,1.953
8.301,12.695,29.785,-11.23,-6.348
5.371,16.602,28.809,-2.441,-10.742
2.441,23.926,19.043,-1.953,-6.836
1.953,28.32,15.625,-7.812,30.273
0.488,24.414,19.531,-17.578,64.941
14.648,20.996,20.996,-3.906,32.715
22.949,20.508,20.02,14.16,51.758
18.555,21.484,10.254,12.207,102.539
-0.488,15.625,2.93,-7.812,13.184
-1.953,14.648,10.742,-17.09,5.859
28.809,16.113,19.531,-4.395,55.176
25.879,17.09,19.531,-4.883,38.574
10.254,20.02,11.719,-0.977,46.875
7.324,17.09,3.906,-7.324,25.879
7.324,14.16,12.695,-19.531,-8.301
20.508,13.672,25.879,-17.578,24.414
20.02,18.555,23.438,-21.484,11.719
18.066,24.902,16.113,-12.207,-19.043
19.531,26.367,9.766,-11.23,-6.836
11.23,23.926,2.441,-22.949,-13.184
21.484,20.996,5.371,-18.555,-10.742
24.414,20.02,20.996,-9.277,-40.039
12.207,19.043,28.809,-5.859,3.906
20.02,13.672,15.625,1.953,47.363
25.391,9.766,10.742,-3.418,0.977
30.762,13.672,21.973,-6.836,21.973
42.48,16.602,28.32,12.207,52.734
33.691,18.555,28.809,19.043,55.664
13.672,17.09,18.066,1.953,42.48
10.254,15.625,12.207,-7.812,37.109
33.691,14.16,11.719,-0.488,45.898
42.48,12.207,11.23,8.789,55.664
18.066,7.324,15.137,0,83.496
14.16,2.441,18.555,-1.465,35.645
12.207,7.812,19.531,1.465,-2.93
7.812,14.648,14.16,-14.16,-18.066
14.648,18.555,9.766,-21.973,-12.695
9.277,22.461,7.812,-17.578,52.734
5.859,20.508,1.465,-19.043,-4.883
-7.324,16.602,3.906,-30.273,-79.102
-3.418,12.695,10.742,-32.227,-17.09
16.602,13.184,18.066,-21.484,46.875
7.812,14.648,24.414,-18.066,60.547
0.977,8.789,17.09,-14.16,56.152
3.906,11.23,0,-17.578,89.844
9.277,15.137,-2.441,-28.32,8.301
20.508,15.137,18.066,-21.484,-55.664
12.695,17.578,24.902,-13.184,-29.785
4.883,17.09,21.484,-4.883,-29.297
9.766,16.113,20.508,-0.977,-34.18
15.137,20.508,21.484,-10.742,17.578
29.297,20.996,22.461,-7.324,21.484
30.762,18.066,23.926,5.859,-2.93
25.879,17.578,21.973,13.672,0.977
16.113,19.043,16.113,1.953,-46.875
7.324,16.113,14.648,-10.742,-5.859
22.949,14.16,22.461,-0.488,51.27
32.227,16.602,27.832,7.324,45.898
17.578,18.066,21.973,-1.953,-5.859
7.812,18.555,9.277,-12.207,-25.879
0.488,18.555,9.766,-24.902,-4.395
10.742,18.555,20.996,-19.531,45.898
26.855,21.484,20.996,-5.371,69.336
15.625,25.391,18.066,-5.859,78.125
-6.348,20.996,16.602,-14.648,41.016
-12.207,11.719,14.648,-19.043,-34.18
15.137,13.184,13.672,-2.441,0.488
28.809,17.578,9.766,11.719,-11.23
7.324,17.09,7.812,2.441,-22.949
0,15.137,6.348,-4.883,9.277
1.953,15.137,7.324,-4.395,15.137
8.789,17.578,16.113,-7.812,21.484
24.414,20.508,18.555,0,3.906
26.367,21.973,19.043,11.23,34.18
30.273,22.461,11.719,14.648,13.184
27.832,24.414,10.742,6.348,-22.461
29.297,22.949,12.695,-2.441,-13.672
38.574,20.02,15.137,5.371,-8.789
27.832,19.531,22.949,15.625,-5.859
20.02,19.531,16.113,13.672,-6.348
9.766,20.02,9.277,-7.324,-8.789
9.766,19.043,19.531,-14.648,-46.875
30.762,20.996,31.738,0.488,11.719
21.484,26.855,31.25,-1.465,64.941
11.719,29.297,19.531,-7.812,27.832
5.371,28.32,15.137,-16.113,28.32
2.441,21.973,13.184,-24.902,55.176
13.184,19.043,19.531,-17.578,45.41
4.883,20.02,25.391,-14.16,-11.23
2.441,15.625,22.949,-5.371,39.551
1.953,17.09,18.066,-4.395,120.117
3.906,23.438,10.742,-16.113,108.887
21.484,21.484,8.301,-10.254,75.684
13.672,18.066,17.578,-2.93,44.922
6.836,14.16,23.926,3.418,61.523
15.137,11.719,23.926,12.207,67.871
16.113,21.484,20.02,0,13.672
29.297,28.809,13.672,-9.766,-41.992
32.227,30.762,15.137,0.977,-11.23
20.508,30.273,20.508,5.371,82.52
14.16,21.973,15.625,-2.441,70.312
7.324,20.996,18.555,-10.742,44.922
18.555,25.879,21.973,-11.719,44.434
27.344,26.367,14.648,0.977,-5.371
25.391,26.855,18.066,16.602,-11.719
19.043,27.832,13.184,3.906,-19.043
6.836,28.32,8.301,-16.602,-33.203
21.973,27.832,18.066,-6.836,-9.277
33.691,27.344,25.879,5.859,2.441
18.555,23.438,24.902,3.906,50.781
7.324,15.625,17.09,-0.977,60.547
2.441,18.066,10.742,-5.371,-17.09
14.16,24.414,12.207,-4.883,-9.277
20.996,22.949,22.461,-3.418,18.555
11.23,20.02,26.367,-3.418,17.578
3.418,19.043,15.137,-7.812,34.18
-5.859,19.531,6.836,-19.531,12.695
4.395,22.461,8.789,-21.973,58.105
23.438,20.508,14.16,-4.883,35.156
7.324,20.02,22.949,1.465,24.902
2.441,20.508,14.648,-0.488,16.602
5.371,20.02,6.348,-3.418,-7.812
9.277,19.531,10.742,-10.742,0.488
20.508,17.578,16.602,-7.812,7.812
19.043,22.949,17.09,-1.953,37.598
24.902,26.367,10.742,9.277,-1.465
20.02,24.414,9.766,7.812,8.301
24.902,22.949,12.695,8.301,41.992
42.969,21.484,16.602,17.09,-5.859
31.25,23.926,15.625,5.859,-8.789
11.719,28.32,5.859,0.488,-0.488
7.324,29.785,2.93,1.953,-41.992
11.23,29.785,10.254,-1.465,-4.395
22.461,27.832,11.719,1.953,7.812
18.066,31.738,15.137,-5.371,0.977
17.578,37.109,13.672,-2.441,20.508
22.949,36.621,6.836,8.301,21.973
9.766,36.133,6.348,-11.719,-9.766
13.184,37.598,5.371,-20.02,21.484
20.508,37.109,6.348,-1.953,80.078
22.461,39.551,6.836,9.766,37.598
18.066,38.086,1.465,4.395,31.25
3.906,33.203,9.766,-8.789,83.984
16.113,31.738,18.555,-8.789,28.809
32.715,32.227,18.555,5.371,-18.066
24.902,34.18,20.508,15.137,-20.996
14.648,37.109,20.02,7.812,-25.391
9.766,41.504,13.672,-3.906,8.301
33.691,43.945,8.301,3.906,-2.93
44.922,42.969,14.16,17.578,18.066
41.504,43.457,15.137,25.391,47.363
37.109,42.48,2.93,17.578,-52.246
13.672,36.133,3.418,-2.441,-31.738
19.531,30.273,18.066,-6.836,57.129
34.18,25.879,27.832,10.742,16.113
21.973,27.832,22.949,13.672,-41.504
6.836,35.645,14.16,-3.906,-48.34
-0.977,38.086,11.23,-16.602,-34.668
10.254,38.086,9.277,-11.23,-18.555
19.531,32.227,20.508,2.441,-11.23
12.207,24.902,37.109,5.859,-18.555
7.812,25.391,24.414,1.465,2.93
-1.953,28.809,15.137,-10.742,7.812
1.953,28.809,21.973,-10.254,9.766
24.902,23.438,30.273,6.836,25.879
20.996,21.973,39.551,8.301,46.387
12.695,26.367,27.344,3.418,51.27
13.672,33.691,16.113,-4.395,-2.441
20.996,37.598,17.578,-9.277,-3.906
35.156,32.715,24.414,1.953,24.902
24.902,29.785,32.715,8.301,-7.812
24.414,32.227,28.809,11.23,14.648
26.855,33.203,20.996,10.254,69.824
26.855,32.227,20.996,-0.488,-12.695
41.992,32.227,24.414,1.465,-15.137
30.762,33.691,22.461,1.465,59.57
17.578,32.715,12.207,0.977,43.457
22.461,37.598,-0.977,-4.883,31.738
16.602,40.039,6.836,-14.16,23.438
17.578,32.227,24.414,-9.277,15.625
21.484,30.273,26.367,-2.441,4.395
12.207,32.715,24.902,-0.488,57.617
5.371,34.18,16.113,-2.441,115.723
-5.859,33.691,8.789,-16.113,53.223
1.465,30.273,16.113,-14.648,-0.488
13.184,27.832,20.02,-5.371,-41.504
9.277,31.25,21.973,-0.977,40.527
11.23,35.645,12.695,0,89.844
16.113,37.109,0,-2.441,5.371
22.949,39.062,9.277,0,8.301
26.855,33.691,20.02,4.883,0.488
17.578,29.297,22.461,10.254,-29.785
3.906,32.715,12.695,-0.977,15.137
5.859,40.039,1.465,-17.09,33.203
19.043,41.016,9.277,-12.695,19.043
23.438,35.156,19.531,0,7.324
17.09,34.668,21.484,-2.93,13.672
12.695,35.645,15.137,-8.789,14.16
3.418,30.762,11.23,-19.043,23.926
15.137,23.926,12.207,-19.531,29.785
29.785,23.926,24.414,-7.812,28.809
6.348,28.32,33.691,-11.23,19.531
-2.441,29.297,13.184,-16.602,11.719
-7.324,28.809,-2.441,-24.902,-15.137
-7.812,29.785,10.254,-24.902,-27.344
15.625,31.738,17.578,-8.789,37.598
17.578,38.086,14.16,-8.301,37.598
21.973,43.457,6.348,-1.465,18.066
10.742,43.945,2.93,-7.812,32.715
5.859,37.109,4.395,-25.879,-9.766
29.297,31.25,11.23,-8.301,10.254
24.414,27.344,12.207,12.207,26.367
16.113,26.367,9.277,14.16,-1.953
4.883,28.32,8.301,0.977,44.434
-3.418,26.367,9.277,-13.672,29.297
11.23,23.926,14.16,-12.207,-1.953
14.16,24.902,12.207,-1.953,25.391
7.324,27.344,2.93,5.371,56.152
-3.418,30.273,-0.977,-4.883,40.527
-4.883,29.785,0,-10.742,24.902
14.648,27.832,1.465,-6.348,16.602
5.371,25.879,13.672,-2.93,-5.859
-6.348,21.484,20.02,7.324,11.23
-8.789,23.438,7.324,-2.93,-15.137
-15.137,31.25,-3.418,-20.508,-41.992
1.465,36.133,1.953,-15.137,-15.625
8.789,35.156,14.648,-3.418,2.441
6.836,29.785,20.508,6.836,46.387
14.648,26.367,13.184,10.742,65.43
6.836,28.809,7.812,-5.371,1.465
23.926,36.133,13.184,-4.883,20.02
38.086,38.574,19.043,6.348,14.648
21.484,32.227,24.902,12.695,10.254
23.438,25.391,25.391,19.531,-5.371
15.137,30.762,20.02,0,-16.113
17.09,33.691,5.371,-15.137,12.207
41.504,33.691,7.812,-0.488,71.289
33.691,32.715,13.672,10.254,50.781
18.555,25.879,13.672,5.371,6.836
11.23,23.926,14.16,-3.906,-2.441
16.602,28.32,6.348,-12.207,-19.531
32.227,29.785,8.301,0.977,-11.719
24.902,28.809,20.996,4.395,28.809
18.066,26.855,21.484,-4.883,21.973
14.16,25.879,16.602,-7.812,-22.949
17.578,27.832,13.184,-11.23,-21.973
25.391,26.367,18.066,-8.789,-19.531
15.137,22.949,21.973,-3.418,-20.996
6.348,19.043,19.043,-2.441,-5.859
0.977,20.996,20.02,-12.695,46.387
4.395,26.367,18.555,-20.996,106.934
21.973,25.879,14.16,-12.695,65.918
23.926,29.297,16.602,-5.859,20.996
14.648,29.297,12.207,-4.395,56.152
8.789,20.508,3.906,-13.672,66.895
12.695,20.996,14.648,-17.09,38.574
32.227,26.367,29.297,0.488,6.836
28.32,26.367,34.18,10.254,7.812
16.602,22.949,32.715,11.719,15.137
11.719,17.09,27.344,8.789,15.137
12.207,18.066,26.855,8.301,73.73
20.996,18.066,31.25,7.812,83.496
21.973,20.02,31.738,12.207,26.855
20.996,25.391,27.344,17.578,23.438
13.184,22.461,21.484,3.906,15.625
-5.371,20.996,28.32,-12.207,10.742
12.207,20.996,34.668,-0.977,27.344
27.344,20.996,36.133,16.113,33.203
23.926,22.949,33.691,20.996,35.156
14.648,19.531,28.809,9.277,-12.695
6.348,15.137,31.25,-1.953,-54.688
28.32,18.066,27.344,3.906,-31.738
33.203,25.879,26.367,10.742,28.809
17.578,26.367,26.367,7.324,61.523
0.977,16.602,27.832,-0.977,88.379
-4.395,12.695,31.738,1.465,61.523
19.043,16.113,28.809,8.789,25.879
28.809,20.508,29.297,9.277,87.891
17.578,20.996,24.414,2.441,79.59
15.137,19.531,17.09,7.324,20.996
9.277,24.902,14.16,4.395,10.742
15.137,28.809,16.113,-2.93,51.758
29.785,21.484,21.484,4.883,23.926
21.484,17.578,23.926,11.719,8.301
20.508,21.484,14.648,8.301,10.254
10.254,24.902,0.488,-7.324,-13.184
15.137,30.273,10.254,-19.043,-27.344
29.785,29.785,26.367,-11.719,0.488
15.137,23.438,33.203,4.883,43.457
9.277,20.02,31.25,12.695,39.551
0.977,21.484,20.996,-6.836,-20.508
-0.488,25.391,12.695,-20.996,-33.203
23.926,26.367,16.113,-7.324,20.02
22.461,24.902,19.043,-0.488,-29.785
13.672,23.438,20.02,1.465,-1.953
11.23,23.438,16.602,-6.836,88.379
5.859,20.508,13.184,-15.137,67.383
20.996,15.625,20.02,-5.371,10.254
23.926,12.695,28.809,2.93,23.438
16.113,14.648,21.484,10.742,44.922
7.324,18.555,7.812,-4.395,-30.273
8.789,23.438,7.812,-15.625,-35.645
29.297,26.855,11.719,-7.324,14.648
32.715,28.32,18.555,-4.883,32.715
21.973,28.32,16.113,-1.953,27.832
8.301,27.344,14.648,-6.348,-4.395
5.859,25.879,15.137,-4.883,-26.855
23.926,22.461,12.207,2.441,-12.207
30.273,20.996,20.508,8.789,-2.93
21.973,19.531,22.949,17.09,32.227
21.484,22.461,18.066,8.789,27.344
17.578,30.273,14.648,-7.324,15.137
22.461,32.227,13.672,-9.277,0
27.832,32.715,20.508,-1.953,36.133
14.648,33.203,24.902,5.859,65.43
17.09,25.879,18.555,8.301,48.34
20.02,26.855,20.996,3.418,60.547
18.555,28.809,21.484,-5.859,14.648
27.832,24.902,16.602,-3.418,-12.207
22.461,27.832,18.066,8.301,21.973
23.438,24.414,14.16,10.254,21.973
23.926,25.391,15.625,1.465,20.996
24.414,29.297,24.414,-2.93,9.277
32.227,23.438,28.809,0,16.113
28.809,22.949,28.809,6.836,26.855
25.391,24.414,25.879,13.672,39.551
15.625,22.461,25.391,3.906,58.594
13.672,23.438,20.996,-4.883,13.672
22.949,21.484,25.391,4.883,32.715
23.926,21.973,32.715,10.742,31.738
15.625,20.996,26.855,8.301,-45.898
-0.977,17.578,18.066,-0.977,-12.207
-2.441,20.508,10.742,-12.695,-6.836
12.695,22.461,11.719,-9.766,4.883
8.789,21.484,16.113,-2.441,27.344
-1.465,15.137,13.184,1.465,7.812
-2.441,11.23,12.695,-0.488,16.602
11.23,15.137,14.16,0.977,39.062
29.785,16.602,14.648,5.371,45.41
22.949,18.066,20.996,13.672,12.207
19.531,17.578,20.02,20.508,44.434
16.602,19.043,9.277,3.418,-2.441
8.789,23.438,9.277,-10.254,-16.113
22.949,17.09,14.16,4.395,10.742
21.973,10.742,24.902,6.348,-14.16
12.207,12.207,22.461,7.812,-18.555
15.137,12.207,13.672,5.859,14.16
13.184,18.066,18.066,-3.418,39.551
16.602,23.438,19.043,-4.395,20.508
17.578,22.949,21.484,2.441,4.395
13.672,22.461,24.414,9.277,26.367
3.906,21.973,24.414,4.395,46.875
-8.301,26.367,17.09,-7.324,5.371
5.859,27.832,12.695,-10.742,-29.297
14.648,23.438,23.438,-1.465,41.016
4.395,20.02,22.949,5.371,68.359
1.465,18.066,11.719,-0.977,32.227
-0.977,20.508,6.348,-14.648,20.02
7.324,22.949,9.277,-17.578,-8.789
17.09,21.484,12.207,-6.348,-26.855
17.578,16.113,16.113,0.488,-34.18
19.531,10.742,20.508,0,-17.09
14.16,9.277,20.02,1.953,-17.09
23.438,9.277,16.113,-0.488,-29.785
42.969,9.277,14.648,3.906,-0.488
37.598,11.23,12.207,6.836,55.664
16.602,9.766,12.207,3.418,57.617
8.301,5.371,14.16,-1.953,33.691
16.602,7.812,13.672,-9.277,48.828
32.715,13.672,14.16,-5.859,72.754
25.391,14.648,15.137,-2.93,48.828
11.719,6.348,13.672,-4.395,-12.695
8.301,2.441,12.695,-7.812,-73.73
9.766,5.371,17.578,-9.766,-37.598
24.414,10.742,13.672,-9.277,19.531
17.09,15.137,9.766,-13.672,-0.488
2.441,12.207,4.395,-14.16,34.668
-0.977,8.789,5.371,-11.23,21.973
-5.859,5.371,9.766,-15.137,-4.395
12.695,5.371,10.742,-10.742,58.594
24.902,5.859,11.719,0,42.48
12.207,8.789,5.859,-0.977,45.41
-0.488,10.254,0,-8.301,76.172
-4.883,6.836,8.789,-13.184,26.367
15.625,-0.488,22.461,-7.812,-16.113
30.273,-5.859,33.203,12.207,42.969
20.996,2.441,21.973,15.137,56.152
7.324,11.719,5.859,-8.301,7.812
0.488,10.742,0.977,-20.02,-16.602
13.672,7.324,2.441,-16.602,5.371
24.414,4.395,12.207,-0.488,47.852
23.926,3.418,14.16,15.137,29.297
23.438,6.348,3.418,-2.93,-0.488
10.742,14.648,3.906,-18.555,10.742
20.508,16.602,14.648,-10.254,24.414
32.227,13.672,22.461,0,20.996
21.484,10.742,21.484,0.488,24.902
10.254,11.23,16.113,-2.93,73.242
1.465,10.742,15.625,-1.953,70.312
10.254,6.348,16.602,-3.418,64.453
18.066,8.789,21.484,-1.465,37.598
5.859,11.719,18.066,-2.441,37.109
4.883,16.113,9.277,0.977,23.438
0.977,20.02,9.277,-4.395,36.621
0.977,11.23,10.254,-15.625,30.762
18.066,4.395,18.555,-6.348,14.648
16.602,8.789,27.832,1.953,22.949
14.16,17.09,16.113,0.977,61.035
7.812,20.996,7.324,-10.254,60.059
4.395,18.555,18.555,-16.113,17.09
22.461,14.16,27.344,-0.488,-3.906
22.949,12.695,36.621,14.16,54.199
16.113,16.113,33.691,14.16,53.223
9.766,23.926,21.484,0.488,9.766
14.648,26.855,15.137,-7.324,16.113
34.18,24.902,15.625,6.836,9.766
27.344,21.973,25.391,11.23,-5.859
19.531,20.02,27.832,6.836,5.371
18.555,19.043,16.602,-3.418,-20.02
12.695,22.461,15.137,-18.555,-45.898
27.344,26.855,22.461,-13.184,12.695
30.273,24.902,27.344,-0.977,-2.441
20.02,21.973,27.832,6.348,28.809
13.184,20.508,23.926,-2.93,45.898
10.742,19.531,15.137,-14.16,26.855
25.391,15.137,20.996,-5.859,47.852
32.227,12.695,32.715,13.672,-12.207
22.949,13.184,25.879,23.926,-42.969
8.789,17.09,19.043,0.488,-21.484
0.977,25.391,14.648,-15.625,-34.18
24.414,26.367,14.648,-3.906,-11.719
28.809,23.926,22.949,10.254,-7.324
7.812,21.484,26.367,11.23,-4.395
-2.93,17.09,20.02,-6.348,16.113
-10.254,18.066,20.508,-21.484,-18.555
5.371,19.531,23.438,-13.672,46.387
18.555,21.484,19.531,-1.953,54.688
10.742,20.996,18.555,-1.953,33.691
3.906,15.137,20.02,-3.906,29.297
-0.488,17.578,14.16,-7.324,-5.859
7.324,19.531,11.23,-10.742,31.25
18.555,19.043,21.484,2.93,61.035
28.809,24.902,24.902,18.555,8.301
28.809,26.367,10.742,13.184,-28.809
8.301,29.297,4.883,-3.418,46.875
6.348,27.344,12.695,-7.324,59.082
18.555,19.531,21.973,0.977,29.785
12.207,17.09,30.273,7.812,-15.137
9.766,19.531,25.391,6.348,24.902
7.812,24.414,17.09,-1.953,64.453
10.742,24.902,11.23,-11.23,55.176
27.344,20.996,16.602,-4.395,28.809
12.695,18.555,27.832,0.488,23.926
0.977,17.09,17.578,-3.418,12.695
10.254,19.043,11.719,-2.441,-42.969
4.883,18.555,22.949,-4.883,-28.32
17.578,15.625,30.762,1.465,32.227
29.297,19.531,33.203,15.625,38.086
29.785,23.926,24.902,25.391,8.789
22.461,25.391,21.484,17.578,-30.762
12.207,23.926,23.926,2.441,4.883
26.855,22.461,20.508,7.812,13.184
27.832,20.996,18.555,19.531,-14.648
16.602,18.066,15.137,21.484,-9.766
14.648,17.578,17.09,17.578,22.461
9.766,20.996,25.391,10.254,3.418
14.16,21.973,25.879,-1.953,17.578
19.043,22.461,28.32,1.953,92.285
20.02,20.02,24.414,23.926,53.223
20.996,22.461,21.484,29.297,22.461
9.766,31.738,18.066,8.789,46.387
27.832,35.156,9.277,5.859,11.719
42.48,34.18,18.066,25.391,13.672
24.902,31.25,21.484,23.926,-22.949
15.625,27.344,24.414,13.184,-19.043
18.066,24.902,23.438,7.812,15.137
33.691,28.809,9.277,3.906,61.523
37.598,34.18,11.23,3.418,75.684
29.785,34.668,18.555,6.348,27.832
31.738,33.691,14.16,1.953,30.273
15.137,32.715,21.973,-5.859,60.059
15.137,31.25,28.809,-3.906,67.871
31.25,36.621,24.414,9.277,30.273
28.32,42.48,15.137,15.625,38.574
29.785,41.992,7.812,18.555,31.738
18.066,41.504,11.23,8.789,10.254
6.348,33.691,15.137,-8.789,-5.371
18.555,23.438,20.02,-1.465,-15.137
21.484,25.391,17.578,12.207,0
12.695,34.668,12.695,8.301,60.547
8.789,36.621,15.625,-1.465,33.691
15.625,30.762,17.09,0.977,-1.465
31.738,23.926,26.855,12.207,22.949
30.273,20.996,36.621,16.602,20.996
12.695,20.996,28.809,10.254,6.348
-3.418,26.367,19.531,-7.324,53.223
7.324,30.762,7.812,-15.137,34.18
36.133,30.273,3.418,0.488,-41.016
32.227,29.785,13.672,13.672,-33.203
14.648,24.902,18.066,17.09,21.973
7.812,18.555,13.184,8.301,35.156
5.371,16.113,19.531,-6.836,24.902
18.555,19.043,25.879,-4.883,53.711
20.508,27.832,20.996,-1.953,84.961
20.996,34.18,9.277,3.418,37.598
22.949,36.133,4.883,8.301,16.113
13.184,34.668,9.277,0.488,33.203
21.973,32.227,20.02,-3.418,51.27
30.273,30.762,28.32,6.348,59.082
23.926,31.25,21.484,14.648,18.555
15.625,34.668,17.09,5.371,14.648
6.348,34.668,17.09,-6.348,29.785
22.949,30.762,15.137,-6.348,1.953
32.227,36.133,20.02,2.441,47.363
20.996,40.039,15.137,9.277,35.645
14.16,31.25,5.859,3.906,20.996
0.488,27.344,10.254,-11.23,7.812
3.906,28.32,13.184,-21.484,28.809
21.973,27.344,17.09,-7.324,36.621
29.297,31.738,13.184,11.719,-36.133
18.066,34.18,10.742,9.277,10.254
-1.465,34.668,15.625,-10.254,55.664
17.578,37.598,9.766,-13.184,24.414
38.574,35.645,10.254,6.348,-15.137
27.344,33.203,21.484,8.789,34.668
17.09,33.203,18.066,-5.859,79.59
5.859,35.156,16.113,-13.184,29.297
16.602,39.062,17.09,-5.859,-34.18
30.762,37.598,21.973,-0.977,-1.953
24.902,32.715,34.18,11.719,55.176
20.996,35.645,35.645,14.16,68.848
5.859,43.457,25.391,-6.348,78.125
9.766,48.828,12.207,-7.324,50.293
25.391,46.875,14.648,2.93,14.16
17.09,38.574,25.879,7.812,-3.906
10.254,33.691,29.297,7.812,-20.508
-6.836,28.809,22.461,-12.207,1.465
-4.395,27.344,20.508,-20.02,-22.461
22.949,33.691,22.949,-8.301,-5.371
29.785,34.18,23.926,10.254,18.066
24.902,26.367,21.973,19.043,-37.598
7.812,20.508,26.855,5.859,-16.602
0.977,21.484,31.738,-7.812,31.25
18.555,25.391,22.461,-9.277,23.926
29.785,28.809,22.949,0,50.293
34.668,31.738,19.043,12.207,-11.23
30.273,35.156,14.16,15.625,-86.914
29.297,34.668,11.23,7.324,-17.09
37.109,27.344,13.672,2.441,17.578
29.297,24.902,27.832,10.254,8.301
22.949,26.367,31.25,15.625,51.27
21.484,29.297,23.438,7.812,24.414
13.184,36.621,18.555,-6.836,13.184
24.902,39.551,12.207,-10.254,30.273
31.25,39.062,16.113,-3.418,38.086
21.484,35.156,20.02,7.324,69.336
15.625,32.715,9.277,2.441,7.812
0,33.203,3.906,-17.578,-21.973
10.742,31.25,3.906,-20.508,0.488
28.32,28.809,7.324,-2.441,-22.461
12.695,28.809,7.324,5.371,-36.621
5.371,31.738,-0.977,-8.789,-6.348
3.418,37.598,-5.859,-21.973,-36.133
18.066,39.062,-6.348,-18.555,-13.184
27.832,31.25,4.883,-4.395,-20.02
6.348,25.391,15.137,-0.977,-18.555
2.441,23.926,14.16,-2.441,41.992
-0.977,26.367,11.23,-9.766,52.734
2.441,27.344,-0.488,-18.066,10.742
22.461,29.785,0.488,-9.277,2.93
19.043,27.344,9.277,3.418,9.277
7.324,20.02,10.742,11.719,8.789
-3.906,22.461,7.324,-5.859,53.711
-5.371,26.367,3.418,-23.438,54.688
18.066,25.391,10.254,-5.859,-11.23
25.391,24.414,16.602,6.836,-2.93
3.418,19.043,16.113,-2.93,60.059
-16.113,13.672,10.254,-15.625,3.906
-8.789,14.648,9.766,-14.16,-24.902
17.578,19.531,19.043,2.441,2.93
15.137,22.461,18.555,2.93,15.137
2.93,24.414,9.766,-5.859,-16.113
1.465,30.762,9.766,-4.883,-32.227
1.953,32.715,5.859,-1.465,25.879
20.996,31.738,4.395,3.906,20.02
18.555,32.715,13.672,0.488,-6.836
8.789,30.273,7.812,-5.859,-19.043
14.648,28.809,-3.906,-4.395,29.297
7.324,34.668,1.953,-11.23,54.199
11.23,34.18,13.184,-10.742,41.016
19.531,30.762,19.043,-1.465,32.715
15.625,34.668,12.695,-1.953,-34.18
11.23,38.574,2.93,-1.465,-18.555
6.836,37.598,-1.953,-6.348,23.438
16.602,33.203,6.348,-12.695,59.082
19.043,27.344,17.09,-3.906,41.016
11.719,24.414,12.695,-0.977,35.156
13.184,26.855,2.441,-6.348,46.875
5.859,33.691,1.953,-16.602,17.578
10.742,32.227,5.859,-20.02,24.414
17.578,25.391,13.672,-6.836,26.855
10.742,23.926,12.695,1.953,15.625
3.906,22.949,10.254,-1.953,15.137
-9.766,22.949,10.742,-8.301,38.574
0,20.508,3.906,-12.207,42.969
9.277,22.461,6.348,-9.766,73.242
5.371,24.902,3.418,-7.324,98.145
8.789,27.832,-6.348,-4.395,86.426
8.301,32.227,-8.301,-0.488,9.766
8.301,26.855,-1.953,-9.277,18.066
9.766,19.531,15.137,-10.254,76.66
17.578,19.043,19.531,4.395,47.363
12.695,22.461,12.207,11.719,20.02
-9.277,30.273,6.836,-4.883,22.949
-10.742,32.715,1.465,-24.902,81.543
6.348,29.297,2.441,-16.602,90.332
5.859,29.297,7.324,-5.371,9.277
6.348,28.32,-0.488,-0.977,-35.645
5.859,32.227,-0.488,-1.465,-35.156
4.883,36.133,7.324,-11.719,-14.648
20.996,32.227,14.648,-6.836,0.977
27.344,34.18,25.391,8.301,21.973
11.23,41.016,11.23,0,16.113
1.953,44.434,4.395,-9.766,37.598
5.859,45.898,6.348,-11.719,58.594
9.277,41.992,6.836,-17.09,61.523
9.277,37.598,15.137,-4.883,25.391
11.23,38.086,15.625,9.766,17.09
4.883,37.598,14.648,0.488,58.594
-1.953,33.691,12.207,-10.254,21.484
12.207,29.785,14.16,-4.395,-3.418
20.02,32.227,19.043,0,9.766
17.09,35.645,12.207,4.395,11.719
17.578,38.086,6.836,-4.883,25.391
17.578,41.504,9.277,-9.277,-24.414
21.484,34.18,13.672,-3.418,-31.738
22.461,22.461,26.367,-0.977,32.715
22.949,19.531,30.273,10.254,43.945
20.996,21.973,26.367,11.719,17.09
11.719,26.367,16.602,0.977,8.301
20.996,29.297,8.301,-1.953,26.367
25.391,27.832,13.672,6.348,-2.93
12.695,25.879,23.926,9.766,15.137
3.906,24.902,25.879,8.301,32.227
-4.883,23.926,25.879,0.488,20.996
3.906,23.438,26.367,-8.789,33.203
20.508,23.926,20.996,1.465,-34.668
16.602,26.855,18.066,12.695,8.301
8.789,22.949,16.113,2.441,40.039
-6.348,19.043,21.484,-9.277,-7.812
0,18.555,27.832,-1.465,-10.742
21.973,21.973,33.203,8.301,27.344
19.043,25.879,38.574,12.695,43.945
9.277,27.344,30.762,8.789,9.766
3.418,30.273,24.414,-0.977,12.207
3.906,26.855,17.578,-4.395,-16.113
17.09,21.484,21.973,6.836,-6.348
16.113,20.508,28.32,14.16,14.16
11.23,22.949,21.973,12.207,-26.855
6.836,29.297,23.438,7.324,20.02
0.488,29.297,23.926,-3.906,54.688
14.16,20.996,29.785,-1.953,60.547
18.555,20.02,35.645,9.766,100.586
20.02,18.555,23.438,15.137,42.969
11.23,17.578,20.508,2.93,24.902
3.418,23.438,23.926,-7.812,-6.836
22.461,25.391,26.367,-1.953,-21.973
28.809,21.973,25.879,6.348,-2.441
18.066,20.02,20.02,7.324,7.324
10.742,23.926,22.461,0.977,63.965
9.766,25.391,21.973,0,34.18
22.461,20.996,25.391,2.441,20.02
28.32,18.066,29.785,6.348,2.441
25.391,18.066,22.461,12.207,-74.219
13.672,15.625,21.973,4.883,-30.762
2.93,11.23,21.484,-7.324,4.395
21.973,8.301,20.02,-0.977,3.906
32.227,8.301,28.32,6.348,59.57
22.461,9.277,21.973,5.371,33.691
16.113,8.301,14.16,4.395,23.438
8.789,10.742,17.09,0,13.184
18.066,11.23,22.461,-3.906,11.23
30.762,9.277,31.25,1.953,27.832
30.762,10.742,24.902,9.277,38.574
29.297,12.207,14.648,8.301,-6.348
22.461,17.09,18.066,2.93,-12.695
29.297,20.996,22.461,4.883,26.855
44.434,21.484,30.762,15.625,-6.348
44.434,21.973,35.645,19.531,24.414
39.062,21.973,30.762,20.996,23.438
28.809,21.484,24.414,16.602,-35.645
30.762,22.949,20.996,6.836,17.09
46.875,21.973,30.273,13.672,73.73
41.992,20.508,35.645,17.578,38.086
31.738,23.926,28.809,12.207,4.883
24.414,28.32,23.926,8.789,-46.387
27.832,28.809,23.438,7.812,-32.715
42.48,26.367,32.227,11.23,7.812
43.945,25.879,29.297,14.648,2.93
34.18,26.367,18.066,15.137,27.832
18.066,29.297,14.16,6.836,64.941
14.16,27.832,11.23,-7.324,26.367
27.344,22.949,18.066,-6.836,-0.977
32.227,21.484,25.879,12.695,45.898
27.344,21.973,15.625,13.672,83.496
17.578,26.855,9.277,0.977,117.676
11.719,32.715,13.672,-5.859,75.684
20.996,31.25,19.531,0.977,46.387
25.879,28.32,25.879,11.719,69.824
20.996,29.297,23.438,11.719,9.766
9.277,28.32,18.555,0.977,-20.996
0.488,26.855,17.09,-9.277,7.812
15.625,25.879,21.484,-3.906,33.691
27.344,21.973,28.32,2.441,73.242
21.973,18.555,23.926,3.906,5.371
18.555,21.973,16.113,5.859,-49.805
8.789,25.391,15.137,-4.395,-2.441
25.391,23.438,17.578,-2.441,-27.832
36.621,22.949,25.391,9.277,-10.742
28.809,25.391,18.555,9.277,28.809
30.762,26.855,8.789,4.883,2.441
21.484,26.855,12.207,-3.418,21.484
29.785,23.926,13.184,-3.906,66.406
36.621,19.043,18.555,3.906,31.738
25.879,20.508,23.926,18.066,42.48
20.02,22.949,22.461,20.996,31.738
3.418,23.926,19.531,4.395,16.602
8.789,23.438,13.184,1.953,34.18
24.414,21.484,20.996,4.883,6.836
10.742,21.973,25.391,1.953,35.645
4.883,24.902,18.555,-1.953,33.691
-1.953,23.926,17.09,-9.277,-11.23
-2.93,16.602,13.184,-14.648,-27.344
10.742,11.719,17.578,-8.301,-21.484
2.93,8.301,22.461,-0.488,25.879
-6.348,9.277,19.531,-2.441,73.73
-15.137,14.648,17.578,-20.02,74.219
-9.277,17.09,12.207,-24.414,-5.859
14.16,20.508,13.672,-10.254,-21.484
12.695,20.996,17.09,-0.977,-23.438
-0.977,18.066,12.207,-7.324,-35.645
-8.789,18.066,19.043,-19.043,35.645
-1.953,21.973,21.973,-14.16,27.832
17.09,21.973,17.09,1.465,-20.02
12.207,18.555,20.02,6.836,-3.418
2.93,16.602,17.09,1.465,-13.672
0.977,20.508,16.113,-6.348,38.574
-3.418,24.414,10.742,-14.648,83.496
12.695,22.949,12.695,-13.184,39.062
19.043,20.02,18.555,-1.953,20.02
3.906,19.531,13.184,-0.977,30.273
-9.277,17.578,10.742,-12.207,42.969
-8.789,20.02,9.277,-17.578,51.758
17.09,25.879,6.836,-8.301,62.5
24.902,29.297,11.719,-1.465,40.527
10.254,22.461,12.207,-4.883,27.344
7.324,16.113,12.695,-5.371,33.691
1.953,20.02,19.043,-13.672,22.461
11.23,24.414,15.625,-24.414,78.125
30.762,31.25,13.672,-9.766,88.379
28.32,34.18,13.672,3.906,60.547
10.742,26.855,14.16,-5.859,61.523
-1.953,20.996,12.695,-17.09,18.066
10.742,14.648,5.859,-16.113,-0.488
31.738,12.207,11.719,1.953,8.301
30.273,12.207,16.602,8.789,17.578
19.043,11.719,15.137,3.906,43.457
10.254,10.742,18.555,-5.371,22.949
15.137,8.789,19.531,-10.254,48.34
29.785,13.184,22.461,-5.371,38.574
21.973,16.113,17.578,-8.789,7.324
6.836,13.672,12.207,-13.672,45.41
-1.465,14.16,15.625,-16.602,0
9.766,14.16,14.16,-17.578,-47.363
20.996,10.254,17.578,-7.812,-19.531
14.648,9.766,20.508,6.348,31.738
3.906,11.23,19.531,3.906,50.781
-0.977,12.207,16.113,-5.371,23.438
6.836,13.672,16.602,-6.348,51.758
20.02,13.672,23.438,4.395,59.082
14.648,15.625,22.949,9.766,26.367
6.348,18.555,13.184,6.836,14.16
1.953,20.508,15.137,0,20.508
-1.465,19.043,19.531,-9.766,31.738
14.16,14.16,19.043,-12.695,35.156
23.438,18.066,18.555,0.488,66.895
22.461,20.508,14.16,12.207,24.902
10.742,16.602,13.184,0,9.277
1.465,17.09,13.184,-14.648,67.871
20.02,14.16,18.066,-9.766,44.434
26.855,12.695,21.973,4.395,-14.16
13.672,18.555,19.043,8.301,-28.32
2.93,21.484,19.531,7.812,-3.418
-0.488,18.555,18.066,3.906,-20.508
13.184,18.066,18.555,0.977,-19.531
24.414,18.555,26.855,12.695,5.859
27.344,17.578,20.508,15.625,-41.992
18.066,19.043,16.113,5.859,-61.035
-4.395,17.09,23.438,-3.418,-5.859
-0.488,15.625,22.461,-14.648,39.551
10.254,19.531,22.461,-12.695,65.918
15.625,23.926,13.672,4.395,22.461
12.207,27.344,12.207,-2.441,16.602
-13.672,21.484,17.578,-19.531,35.645
-1.953,17.09,22.949,-16.602,28.32
19.043,19.043,27.344,-6.348,13.672
15.137,14.16,18.555,0,-14.648
14.648,13.184,15.137,-0.488,-6.348
4.395,18.555,21.973,-10.254,-3.418
15.625,20.508,19.531,-3.418,41.504
32.227,20.02,21.973,10.742,38.574
25.391,20.996,20.02,4.883,2.93
16.602,24.902,10.254,-1.465,-6.836
5.859,23.926,13.184,-5.859,25.391
6.348,18.555,16.602,-9.277,34.668
20.508,13.184,20.996,-3.418,17.578
25.879,11.719,20.996,9.277,32.227
19.531,16.113,15.137,13.184,-10.254
10.254,22.949,9.277,-0.977,-2.441
9.766,20.02,3.906,-9.766,-1.953
21.484,13.672,11.23,-2.441,-28.32
27.832,14.16,16.602,9.277,6.836
23.438,11.719,12.207,16.602,-9.766
10.254,11.23,14.16,7.324,-2.441
8.301,16.602,14.648,-0.488,47.852
26.367,20.508,15.137,8.789,53.711
27.832,22.461,24.902,14.16,35.156
22.461,23.438,25.391,18.066,17.578
18.066,22.461,24.414,12.695,59.082
22.949,23.438,24.414,4.883,77.637
41.016,23.438,27.832,14.648,9.277
43.945,21.484,32.715,27.344,-41.016
38.086,21.484,17.578,27.344,10.742
22.949,21.484,18.066,12.695,50.781
10.742,15.625,32.715,5.371,42.969
35.645,7.812,34.18,24.414,23.926
36.621,9.766,42.48,25.879,47.852
13.672,18.555,33.203,8.301,60.547
10.742,25.391,16.602,6.836,10.742
2.93,27.344,19.043,0.488,14.16
14.648,25.879,25.391,1.953,34.668
24.414,23.926,34.668,14.16,18.066
13.184,25.391,33.691,13.672,25.391
9.277,25.391,27.344,8.301,22.461
7.812,25.391,23.926,1.465,23.438
16.113,28.809,24.414,-2.93,36.621
23.926,28.32,32.227,0,49.805
30.762,26.855,29.297,9.766,9.766
30.762,32.227,22.461,7.324,8.301
24.902,36.133,25.391,0,100.098
34.18,33.691,22.461,-5.371,82.031
45.898,31.25,31.738,3.906,22.949
49.805,25.391,37.598,21.484,28.809
37.109,24.414,33.203,14.648,24.902
15.625,31.25,26.367,-2.441,-17.09
23.926,39.551,16.602,0,-19.043
46.387,41.016,17.578,15.625,-9.766
23.438,36.621,28.32,17.578,8.301
6.836,29.297,31.738,9.766,-0.977
9.766,28.32,24.414,9.277,-20.996
0,23.438,21.484,3.418,-17.09
9.766,14.648,36.133,7.324,-3.906
17.578,11.719,43.945,25.879,56.152
11.23,16.113,30.762,15.137,44.434
-5.859,24.902,19.531,-16.113,15.625
0.977,33.691,14.648,-15.137,-0.977
22.461,32.715,16.602,-4.883,-35.156
29.785,24.902,25.879,6.348,32.227
29.297,23.926,25.879,17.578,41.504
15.137,26.855,20.996,-0.977,24.902
9.766,30.762,16.113,-13.672,11.719
30.762,32.715,11.23,-4.395,-7.812
44.922,32.227,12.695,10.254,-7.324
23.926,23.926,14.648,4.395,-45.898
-1.465,19.043,18.066,-20.508,-9.277
-0.977,20.508,19.531,-19.043,4.883
14.648,19.531,16.602,-12.207,5.859
13.184,18.555,20.02,-10.254,51.758
0,12.695,23.438,-5.859,35.156
1.953,8.789,27.344,-4.395,16.602
-2.93,10.254,21.973,-12.207,35.156
4.395,16.113,16.113,-21.484,61.035
17.09,19.043,20.02,-12.207,54.199
16.602,20.02,13.672,2.93,20.508
15.137,21.973,7.324,0,18.555
12.207,25.879,10.742,-5.859,43.457
15.625,24.902,16.602,-7.324,17.09
13.184,19.043,31.25,-6.836,21.973
19.531,17.578,30.273,2.93,61.035
27.832,16.602,24.902,11.23,11.23
13.184,18.066,26.855,4.395,-3.906
7.324,18.555,24.902,-7.812,15.137
18.066,19.043,29.785,-7.812,58.105
25.879,23.438,26.367,8.789,21.484
11.23,25.879,23.926,6.348,30.762
0,27.832,19.531,-2.441,68.848
11.23,30.273,15.625,-1.953,10.742
18.066,30.762,30.762,-3.418,13.672
17.578,28.32,36.133,6.836,16.113
18.555,23.926,28.809,9.766,-35.645
11.719,24.902,31.738,1.465,19.531
14.648,24.902,26.855,-1.465,-4.883
31.25,21.973,27.832,1.953,-40.039
32.227,21.973,35.645,16.113,42.48
23.438,20.508,35.156,18.555,34.668
15.137,16.113,34.18,6.836,19.531
13.184,17.09,25.391,-0.977,-14.16
32.715,21.484,21.973,7.324,-45.41
35.645,23.438,26.367,18.066,40.527
24.902,27.344,26.367,20.996,57.129
18.066,27.344,26.367,11.719,53.223
14.648,21.484,19.531,3.418,26.367
26.855,19.043,20.02,7.812,16.602
31.738,17.578,24.414,15.137,-32.715
18.066,18.555,29.297,11.23,-12.207
1.953,18.066,35.156,1.953,60.547
-2.93,15.625,28.32,0,18.066
23.438,14.648,25.391,13.184,14.648
37.598,20.508,28.809,23.438,-0.488
17.578,21.973,24.414,18.066,2.93
6.836,17.09,19.531,7.812,29.297
5.371,21.973,23.926,6.348,33.691
14.648,22.461,26.367,6.836,-30.273
29.785,14.648,32.715,18.066,-91.797
23.926,15.137,39.062,35.156,2.441
19.531,22.461,32.715,30.762,44.922
18.066,23.438,23.926,20.02,3.906
15.625,16.113,32.715,17.09,24.414
33.203,13.672,36.133,26.367,33.203
42.969,20.996,27.832,36.621,86.426
18.066,11.719,30.273,22.461,76.172
-1.465,-3.906,28.809,4.883,43.457
8.789,-11.23,25.879,6.836,46.875
38.086,-20.02,38.574,32.715,-7.812
46.875,-18.066,36.621,41.504,31.738
28.32,-3.418,20.02,13.672,94.727
15.625,10.742,13.672,4.395,44.922
17.09,9.277,17.578,5.859,-7.324
25.391,-1.465,30.762,10.254,-9.766
20.996,-1.465,30.762,19.043,56.641
15.137,0,25.879,15.625,37.598
9.766,0.488,29.785,11.719,-17.578
9.766,2.441,23.438,4.883,-42.969
30.273,1.953,16.113,3.906,-88.379
34.18,5.859,19.043,11.719,-12.695
14.648,5.371,20.508,10.254,-53.223
6.836,-4.883,30.273,9.766,-55.664
14.648,-8.789,32.227,14.648,17.09
26.367,-1.953,22.949,7.812,-10.742
25.391,4.395,18.066,6.836,2.441
23.438,6.836,12.207,13.184,36.133
12.207,9.277,14.16,5.371,16.113
5.371,10.742,16.113,0,-9.277
21.484,9.277,16.602,1.953,-7.324
27.832,12.207,20.02,9.277,-16.113
15.137,17.09,15.137,7.324,4.883
1.953,22.461,10.742,-4.883,23.438
9.766,30.762,4.395,-5.371,-2.93
27.832,32.227,3.418,-5.859,33.691
28.809,29.297,11.719,3.906,34.668
20.02,29.785,10.742,8.789,45.41
11.23,32.715,7.812,-4.395,87.891
4.395,31.738,3.906,-7.812,31.25
16.602,29.297,5.371,1.465,-5.371
30.762,26.367,13.184,12.695,-16.602
30.273,26.855,12.695,17.09,12.695
21.484,28.809,7.812,9.766,-22.949
2.441,23.438,11.23,4.395,-15.625
19.531,17.09,18.555,14.648,46.387
41.992,19.531,20.508,20.508,43.457
29.297,27.344,12.695,20.508,37.598
19.531,29.297,11.719,20.508,58.594
5.859,24.414,14.648,7.324,30.762
0.488,15.625,19.531,-2.441,-28.809
21.973,12.207,29.785,10.254,-6.836
32.227,16.113,20.508,21.973,46.387
23.438,20.996,12.695,19.043,42.969
12.695,25.879,16.602,9.766,9.277
3.906,19.043,15.625,-6.348,15.625
18.555,10.254,17.578,1.953,-47.852
26.855,14.648,20.996,11.719,-14.648
12.695,22.461,2.93,-6.348,34.18
2.93,27.832,-4.395,-19.043,32.227
3.418,30.762,0.488,-16.602,50.781
13.672,27.344,9.277,-8.301,38.086
12.695,19.531,18.066,-1.465,13.184
3.906,15.137,20.996,9.766,0
0,14.16,20.02,5.859,16.602
0.488,15.625,7.812,-5.859,20.996
16.602,18.555,6.348,-2.93,25.879
25.391,20.508,13.672,9.766,-0.488
17.09,21.484,13.184,17.09,-25.391
9.277,21.484,11.23,9.277,47.363
2.93,24.414,9.766,-3.418,83.984
11.719,24.902,9.766,-4.395,59.57
16.602,23.438,14.16,3.418,19.043
18.066,21.484,9.277,8.301,27.832
17.09,23.438,8.301,4.883,48.34
10.254,31.25,11.23,-4.395,39.551
20.996,29.785,13.672,-5.371,60.059
37.598,23.926,19.043,13.184,34.18
35.645,20.508,21.484,21.484,-27.344
17.09,18.066,19.531,5.859,4.883
8.789,22.461,7.812,-1.953,24.414
18.066,25.391,4.395,-1.465,50.293
32.227,28.809,10.254,8.789,63.965
37.109,32.715,0.977,24.414,62.988
23.926,26.855,3.906,16.113,54.688
6.836,16.113,21.484,4.883,-11.23
19.043,9.766,25.879,13.672,-38.086
20.508,13.184,27.344,9.766,29.297
6.836,16.602,19.043,-4.395,47.363
18.555,16.113,14.648,11.719,-24.414
27.832,20.996,13.184,22.461,-39.062
32.227,20.996,14.16,15.137,31.25
44.434,17.578,18.555,19.531,63.965
39.062,20.996,18.066,19.043,43.457
32.227,22.949,15.625,14.648,7.812
28.32,23.926,13.672,13.672,-28.32
24.902,19.531,14.16,7.812,-38.574
36.621,12.207,24.414,15.137,-4.395
41.992,11.23,24.902,19.531,12.207
30.273,16.113,12.207,11.719,35.156
16.602,22.949,8.301,5.371,22.949
7.324,21.484,4.883,-12.207,-31.738
20.996,13.672,18.066,-10.254,17.09
38.086,15.625,29.785,11.719,28.809
30.273,19.531,23.926,21.973,7.812
18.066,22.949,18.066,12.207,-1.953
16.113,21.484,15.137,1.465,-15.137
28.32,16.113,24.902,10.742,-1.953
28.32,15.137,32.227,16.602,13.672
16.113,21.484,27.832,15.137,41.992
6.348,22.949,25.879,9.766,38.086
6.836,21.484,20.508,-0.488,3.906
22.461,24.902,18.555,0.977,28.32
36.133,29.785,20.508,17.09,6.348
36.133,32.715,12.695,25.391,-63.477
17.09,33.203,14.648,12.207,-5.859
-1.953,28.32,17.578,-2.441,43.457
15.137,22.949,22.461,-0.977,30.762
35.156,19.043,33.691,12.695,23.926
23.438,20.996,34.18,11.719,22.461
7.812,27.832,28.809,-6.348,47.363
1.465,35.645,14.16,-7.812,43.945
11.719,34.18,9.766,-9.766,8.301
26.855,29.297,18.066,-1.465,25.879
30.762,27.832,12.207,15.137,76.66
18.066,24.902,12.695,2.93,62.988
0,23.926,22.461,-13.184,36.133
12.207,19.531,23.438,-7.324,33.691
37.598,14.16,24.902,12.695,0.488
32.715,17.09,16.113,18.066,-20.996
18.555,26.367,9.277,-2.441,-3.418
6.836,32.227,15.625,-6.836,48.828
11.719,29.297,9.766,1.465,-15.137
34.18,28.32,13.184,2.93,-15.625
41.992,34.18,14.16,13.672,31.25
37.109,39.062,8.789,16.113,19.043
22.461,34.668,11.23,7.324,29.785
27.832,24.414,14.16,5.859,18.555
52.734,17.578,28.32,16.602,16.602
49.805,19.531,29.785,16.113,50.293
30.273,21.973,15.137,7.812,31.738
18.066,23.926,8.301,-1.465,-14.16
19.043,25.391,9.766,-15.137,11.719
31.738,28.32,15.137,-8.789,13.184
38.574,30.273,11.719,6.348,-35.156
27.344,26.367,5.859,2.441,-5.371
0,26.855,8.301,-17.578,26.855
-2.93,28.32,4.395,-19.531,14.648
19.531,27.832,5.859,-5.859,33.203
17.578,27.344,10.742,-3.418,52.734
4.883,26.367,14.16,-7.324,42.48
3.906,26.367,17.09,-7.324,54.688
3.906,20.508,10.254,-9.277,54.199
20.02,12.695,17.09,-6.836,30.762
30.273,7.324,33.203,11.23,59.082
30.762,5.859,24.902,25.391,69.336
26.855,16.113,19.043,12.207,7.324
21.973,23.926,20.02,0.977,43.457
43.457,24.902,8.301,17.578,85.938
54.688,27.832,8.301,34.668,34.18
35.645,22.461,19.043,20.996,48.34
13.672,15.137,20.996,4.395,83.008
